# H08_AHI RSR
# QV 2025-02-15 from AHI-8_SpectralResponsivity_Data.xlsx
# interpolated to 0.1 nm, filtered to response > 0.002
# VSWIR channels
#
# H08_AHI Band Band 1
# -------------------
0.4417 0.002161
0.4418 0.002457
0.4419 0.002777
0.4420 0.003122
0.4421 0.003537
0.4422 0.004064
0.4423 0.004701
0.4424 0.005447
0.4425 0.006299
0.4426 0.007255
0.4427 0.008314
0.4428 0.009471
0.4429 0.010727
0.4430 0.012078
0.4431 0.013710
0.4432 0.015783
0.4433 0.018262
0.4434 0.021110
0.4435 0.024292
0.4436 0.027768
0.4437 0.031504
0.4438 0.035461
0.4439 0.039603
0.4440 0.043896
0.4441 0.048673
0.4442 0.054221
0.4443 0.060426
0.4444 0.067177
0.4445 0.074359
0.4446 0.081860
0.4447 0.089565
0.4448 0.097362
0.4449 0.105136
0.4450 0.112776
0.4451 0.120470
0.4452 0.128447
0.4453 0.136653
0.4454 0.145033
0.4455 0.153532
0.4456 0.162095
0.4457 0.170669
0.4458 0.179198
0.4459 0.187629
0.4460 0.195905
0.4461 0.204056
0.4462 0.212151
0.4463 0.220204
0.4464 0.228228
0.4465 0.236234
0.4466 0.244236
0.4467 0.252246
0.4468 0.260276
0.4469 0.268339
0.4470 0.276447
0.4471 0.284638
0.4472 0.292918
0.4473 0.301257
0.4474 0.309623
0.4475 0.317985
0.4476 0.326310
0.4477 0.334568
0.4478 0.342727
0.4479 0.350755
0.4480 0.358622
0.4481 0.366345
0.4482 0.373968
0.4483 0.381500
0.4484 0.388950
0.4485 0.396327
0.4486 0.403638
0.4487 0.410892
0.4488 0.418097
0.4489 0.425263
0.4490 0.432397
0.4491 0.439468
0.4492 0.446447
0.4493 0.453354
0.4494 0.460207
0.4495 0.467025
0.4496 0.473826
0.4497 0.480627
0.4498 0.487449
0.4499 0.494308
0.4500 0.501225
0.4501 0.508197
0.4502 0.515206
0.4503 0.522242
0.4504 0.529296
0.4505 0.536356
0.4506 0.543414
0.4507 0.550459
0.4508 0.557482
0.4509 0.564471
0.4510 0.571418
0.4511 0.578441
0.4512 0.585615
0.4513 0.592868
0.4514 0.600127
0.4515 0.607317
0.4516 0.614367
0.4517 0.621202
0.4518 0.627750
0.4519 0.633938
0.4520 0.639692
0.4521 0.645185
0.4522 0.650607
0.4523 0.655912
0.4524 0.661055
0.4525 0.665988
0.4526 0.670667
0.4527 0.675044
0.4528 0.679074
0.4529 0.682711
0.4530 0.685906
0.4531 0.688714
0.4532 0.691252
0.4533 0.693568
0.4534 0.695712
0.4535 0.697732
0.4536 0.699676
0.4537 0.701594
0.4538 0.703535
0.4539 0.705547
0.4540 0.707678
0.4541 0.709874
0.4542 0.712055
0.4543 0.714230
0.4544 0.716408
0.4545 0.718599
0.4546 0.720812
0.4547 0.723056
0.4548 0.725341
0.4549 0.727676
0.4550 0.730071
0.4551 0.732547
0.4552 0.735108
0.4553 0.737737
0.4554 0.740417
0.4555 0.743129
0.4556 0.745857
0.4557 0.748583
0.4558 0.751291
0.4559 0.753961
0.4560 0.756579
0.4561 0.759269
0.4562 0.762121
0.4563 0.765059
0.4564 0.768010
0.4565 0.770898
0.4566 0.773650
0.4567 0.776188
0.4568 0.778440
0.4569 0.780332
0.4570 0.781790
0.4571 0.782997
0.4572 0.784174
0.4573 0.785299
0.4574 0.786349
0.4575 0.787301
0.4576 0.788131
0.4577 0.788817
0.4578 0.789335
0.4579 0.789663
0.4580 0.789778
0.4581 0.789561
0.4582 0.788973
0.4583 0.788108
0.4584 0.787058
0.4585 0.785914
0.4586 0.784771
0.4587 0.783720
0.4588 0.782853
0.4589 0.782267
0.4590 0.782051
0.4591 0.782070
0.4592 0.782132
0.4593 0.782233
0.4594 0.782371
0.4595 0.782545
0.4596 0.782754
0.4597 0.782997
0.4598 0.783271
0.4599 0.783575
0.4600 0.783908
0.4601 0.784674
0.4602 0.786180
0.4603 0.788302
0.4604 0.790917
0.4605 0.793893
0.4606 0.797102
0.4607 0.800418
0.4608 0.803711
0.4609 0.806855
0.4610 0.809724
0.4611 0.812657
0.4612 0.815976
0.4613 0.819524
0.4614 0.823149
0.4615 0.826691
0.4616 0.829995
0.4617 0.832907
0.4618 0.835264
0.4619 0.836916
0.4620 0.837710
0.4621 0.838003
0.4622 0.838269
0.4623 0.838509
0.4624 0.838719
0.4625 0.838900
0.4626 0.839051
0.4627 0.839170
0.4628 0.839256
0.4629 0.839309
0.4630 0.839326
0.4631 0.838978
0.4632 0.838042
0.4633 0.836658
0.4634 0.834980
0.4635 0.833154
0.4636 0.831327
0.4637 0.829649
0.4638 0.828265
0.4639 0.827329
0.4640 0.826982
0.4641 0.827092
0.4642 0.827414
0.4643 0.827927
0.4644 0.828615
0.4645 0.829458
0.4646 0.830438
0.4647 0.831537
0.4648 0.832737
0.4649 0.834020
0.4650 0.835369
0.4651 0.837200
0.4652 0.839846
0.4653 0.843169
0.4654 0.847019
0.4655 0.851258
0.4656 0.855740
0.4657 0.860323
0.4658 0.864861
0.4659 0.869213
0.4660 0.873235
0.4661 0.877168
0.4662 0.881288
0.4663 0.885520
0.4664 0.889783
0.4665 0.893997
0.4666 0.898082
0.4667 0.901960
0.4668 0.905546
0.4669 0.908767
0.4670 0.911538
0.4671 0.913946
0.4672 0.916148
0.4673 0.918175
0.4674 0.920065
0.4675 0.921846
0.4676 0.923556
0.4677 0.925226
0.4678 0.926889
0.4679 0.928579
0.4680 0.930330
0.4681 0.932166
0.4682 0.934069
0.4683 0.936003
0.4684 0.937932
0.4685 0.939822
0.4686 0.941637
0.4687 0.943343
0.4688 0.944905
0.4689 0.946285
0.4690 0.947452
0.4691 0.948511
0.4692 0.949575
0.4693 0.950618
0.4694 0.951612
0.4695 0.952528
0.4696 0.953340
0.4697 0.954019
0.4698 0.954539
0.4699 0.954871
0.4700 0.954988
0.4701 0.954947
0.4702 0.954835
0.4703 0.954670
0.4704 0.954469
0.4705 0.954251
0.4706 0.954033
0.4707 0.953832
0.4708 0.953668
0.4709 0.953555
0.4710 0.953515
0.4711 0.953648
0.4712 0.954012
0.4713 0.954546
0.4714 0.955196
0.4715 0.955903
0.4716 0.956610
0.4717 0.957260
0.4718 0.957794
0.4719 0.958158
0.4720 0.958290
0.4721 0.958072
0.4722 0.957476
0.4723 0.956602
0.4724 0.955537
0.4725 0.954379
0.4726 0.953222
0.4727 0.952157
0.4728 0.951282
0.4729 0.950687
0.4730 0.950468
0.4731 0.950542
0.4732 0.950753
0.4733 0.951082
0.4734 0.951511
0.4735 0.952022
0.4736 0.952598
0.4737 0.953219
0.4738 0.953867
0.4739 0.954526
0.4740 0.955175
0.4741 0.955938
0.4742 0.956903
0.4743 0.958016
0.4744 0.959220
0.4745 0.960456
0.4746 0.961669
0.4747 0.962800
0.4748 0.963791
0.4749 0.964587
0.4750 0.965129
0.4751 0.965520
0.4752 0.965894
0.4753 0.966246
0.4754 0.966571
0.4755 0.966861
0.4756 0.967113
0.4757 0.967318
0.4758 0.967472
0.4759 0.967569
0.4760 0.967602
0.4761 0.967460
0.4762 0.967069
0.4763 0.966486
0.4764 0.965765
0.4765 0.964962
0.4766 0.964132
0.4767 0.963330
0.4768 0.962610
0.4769 0.962030
0.4770 0.961643
0.4771 0.961373
0.4772 0.961111
0.4773 0.960862
0.4774 0.960631
0.4775 0.960422
0.4776 0.960241
0.4777 0.960091
0.4778 0.959978
0.4779 0.959907
0.4780 0.959883
0.4781 0.960054
0.4782 0.960536
0.4783 0.961285
0.4784 0.962252
0.4785 0.963397
0.4786 0.964671
0.4787 0.966030
0.4788 0.967428
0.4789 0.968820
0.4790 0.970161
0.4791 0.971580
0.4792 0.973202
0.4793 0.974982
0.4794 0.976871
0.4795 0.978821
0.4796 0.980786
0.4797 0.982717
0.4798 0.984568
0.4799 0.986289
0.4800 0.987834
0.4801 0.989343
0.4802 0.990945
0.4803 0.992581
0.4804 0.994192
0.4805 0.995718
0.4806 0.997100
0.4807 0.998280
0.4808 0.999194
0.4809 0.999787
0.4810 1.000000
0.4811 0.999934
0.4812 0.999746
0.4813 0.999446
0.4814 0.999042
0.4815 0.998547
0.4816 0.997972
0.4817 0.997324
0.4818 0.996617
0.4819 0.995860
0.4820 0.995062
0.4821 0.993997
0.4822 0.992481
0.4823 0.990578
0.4824 0.988352
0.4825 0.985874
0.4826 0.983210
0.4827 0.980426
0.4828 0.977590
0.4829 0.974768
0.4830 0.972028
0.4831 0.969291
0.4832 0.966437
0.4833 0.963472
0.4834 0.960401
0.4835 0.957231
0.4836 0.953968
0.4837 0.950617
0.4838 0.947183
0.4839 0.943674
0.4840 0.940094
0.4841 0.936447
0.4842 0.932722
0.4843 0.928906
0.4844 0.924986
0.4845 0.920947
0.4846 0.916776
0.4847 0.912460
0.4848 0.907987
0.4849 0.903340
0.4850 0.898507
0.4851 0.893425
0.4852 0.888056
0.4853 0.882425
0.4854 0.876561
0.4855 0.870492
0.4856 0.864244
0.4857 0.857843
0.4858 0.851318
0.4859 0.844696
0.4860 0.838005
0.4861 0.831139
0.4862 0.824007
0.4863 0.816652
0.4864 0.809117
0.4865 0.801444
0.4866 0.793674
0.4867 0.785852
0.4868 0.778020
0.4869 0.770220
0.4870 0.762494
0.4871 0.754743
0.4872 0.746866
0.4873 0.738907
0.4874 0.730907
0.4875 0.722912
0.4876 0.714963
0.4877 0.707104
0.4878 0.699378
0.4879 0.691829
0.4880 0.684501
0.4881 0.677396
0.4882 0.670469
0.4883 0.663688
0.4884 0.657019
0.4885 0.650431
0.4886 0.643891
0.4887 0.637366
0.4888 0.630824
0.4889 0.624232
0.4890 0.617557
0.4891 0.610868
0.4892 0.604237
0.4893 0.597634
0.4894 0.591035
0.4895 0.584411
0.4896 0.577734
0.4897 0.570978
0.4898 0.564114
0.4899 0.557117
0.4900 0.549958
0.4901 0.542722
0.4902 0.535482
0.4903 0.528190
0.4904 0.520800
0.4905 0.513266
0.4906 0.505542
0.4907 0.497581
0.4908 0.489335
0.4909 0.480757
0.4910 0.471800
0.4911 0.462297
0.4912 0.452173
0.4913 0.441532
0.4914 0.430476
0.4915 0.419108
0.4916 0.407532
0.4917 0.395852
0.4918 0.384171
0.4919 0.372592
0.4920 0.361218
0.4921 0.349928
0.4922 0.338548
0.4923 0.327101
0.4924 0.315610
0.4925 0.304097
0.4926 0.292586
0.4927 0.281100
0.4928 0.269660
0.4929 0.258291
0.4930 0.247015
0.4931 0.235602
0.4932 0.223903
0.4933 0.212057
0.4934 0.200203
0.4935 0.188480
0.4936 0.177028
0.4937 0.165987
0.4938 0.155494
0.4939 0.145691
0.4940 0.136719
0.4941 0.128302
0.4942 0.120102
0.4943 0.112160
0.4944 0.104520
0.4945 0.097225
0.4946 0.090318
0.4947 0.083843
0.4948 0.077841
0.4949 0.072357
0.4950 0.067434
0.4951 0.062911
0.4952 0.058603
0.4953 0.054516
0.4954 0.050658
0.4955 0.047035
0.4956 0.043654
0.4957 0.040523
0.4958 0.037649
0.4959 0.035038
0.4960 0.032698
0.4961 0.030561
0.4962 0.028555
0.4963 0.026673
0.4964 0.024910
0.4965 0.023263
0.4966 0.021725
0.4967 0.020293
0.4968 0.018961
0.4969 0.017725
0.4970 0.016579
0.4971 0.015500
0.4972 0.014472
0.4973 0.013494
0.4974 0.012569
0.4975 0.011698
0.4976 0.010882
0.4977 0.010123
0.4978 0.009423
0.4979 0.008783
0.4980 0.008203
0.4981 0.007670
0.4982 0.007167
0.4983 0.006692
0.4984 0.006246
0.4985 0.005827
0.4986 0.005436
0.4987 0.005071
0.4988 0.004733
0.4989 0.004421
0.4990 0.004133
0.4991 0.003865
0.4992 0.003611
0.4993 0.003371
0.4994 0.003144
0.4995 0.002931
0.4996 0.002730
0.4997 0.002543
0.4998 0.002369
0.4999 0.002207
0.5000 0.002057
# -------------------
# H08_AHI Band Band 2
# -------------------
0.4815 0.002021
0.4816 0.002138
0.4817 0.002262
0.4818 0.002394
0.4819 0.002534
0.4820 0.002680
0.4821 0.002838
0.4822 0.003011
0.4823 0.003199
0.4824 0.003401
0.4825 0.003619
0.4826 0.003850
0.4827 0.004096
0.4828 0.004356
0.4829 0.004630
0.4830 0.004918
0.4831 0.005229
0.4832 0.005570
0.4833 0.005940
0.4834 0.006339
0.4835 0.006764
0.4836 0.007214
0.4837 0.007689
0.4838 0.008188
0.4839 0.008709
0.4840 0.009251
0.4841 0.009823
0.4842 0.010436
0.4843 0.011090
0.4844 0.011785
0.4845 0.012522
0.4846 0.013302
0.4847 0.014125
0.4848 0.014991
0.4849 0.015901
0.4850 0.016856
0.4851 0.017865
0.4852 0.018941
0.4853 0.020089
0.4854 0.021313
0.4855 0.022617
0.4856 0.024006
0.4857 0.025486
0.4858 0.027059
0.4859 0.028731
0.4860 0.030506
0.4861 0.032452
0.4862 0.034623
0.4863 0.037003
0.4864 0.039575
0.4865 0.042324
0.4866 0.045236
0.4867 0.048293
0.4868 0.051478
0.4869 0.054777
0.4870 0.058174
0.4871 0.061806
0.4872 0.065783
0.4873 0.070051
0.4874 0.074558
0.4875 0.079252
0.4876 0.084078
0.4877 0.088983
0.4878 0.093913
0.4879 0.098816
0.4880 0.103637
0.4881 0.108443
0.4882 0.113326
0.4883 0.118273
0.4884 0.123273
0.4885 0.128311
0.4886 0.133376
0.4887 0.138454
0.4888 0.143532
0.4889 0.148598
0.4890 0.153638
0.4891 0.158672
0.4892 0.163723
0.4893 0.168785
0.4894 0.173854
0.4895 0.178924
0.4896 0.183990
0.4897 0.189047
0.4898 0.194090
0.4899 0.199113
0.4900 0.204111
0.4901 0.209090
0.4902 0.214056
0.4903 0.219010
0.4904 0.223953
0.4905 0.228882
0.4906 0.233799
0.4907 0.238704
0.4908 0.243595
0.4909 0.248472
0.4910 0.253336
0.4911 0.258148
0.4912 0.262887
0.4913 0.267579
0.4914 0.272250
0.4915 0.276925
0.4916 0.281631
0.4917 0.286392
0.4918 0.291236
0.4919 0.296187
0.4920 0.301272
0.4921 0.306474
0.4922 0.311762
0.4923 0.317135
0.4924 0.322594
0.4925 0.328139
0.4926 0.333769
0.4927 0.339484
0.4928 0.345284
0.4929 0.351170
0.4930 0.357142
0.4931 0.363237
0.4932 0.369479
0.4933 0.375849
0.4934 0.382324
0.4935 0.388886
0.4936 0.395512
0.4937 0.402184
0.4938 0.408881
0.4939 0.415582
0.4940 0.422266
0.4941 0.428925
0.4942 0.435574
0.4943 0.442233
0.4944 0.448918
0.4945 0.455649
0.4946 0.462442
0.4947 0.469317
0.4948 0.476290
0.4949 0.483381
0.4950 0.490607
0.4951 0.497991
0.4952 0.505529
0.4953 0.513200
0.4954 0.520985
0.4955 0.528864
0.4956 0.536815
0.4957 0.544819
0.4958 0.552855
0.4959 0.560904
0.4960 0.568944
0.4961 0.576968
0.4962 0.584992
0.4963 0.593034
0.4964 0.601111
0.4965 0.609241
0.4966 0.617441
0.4967 0.625730
0.4968 0.634124
0.4969 0.642642
0.4970 0.651300
0.4971 0.660098
0.4972 0.669021
0.4973 0.678063
0.4974 0.687219
0.4975 0.696485
0.4976 0.705855
0.4977 0.715324
0.4978 0.724886
0.4979 0.734537
0.4980 0.744273
0.4981 0.754269
0.4982 0.764628
0.4983 0.775243
0.4984 0.786000
0.4985 0.796789
0.4986 0.807499
0.4987 0.818017
0.4988 0.828233
0.4989 0.838034
0.4990 0.847311
0.4991 0.856318
0.4992 0.865324
0.4993 0.874243
0.4994 0.882986
0.4995 0.891465
0.4996 0.899593
0.4997 0.907282
0.4998 0.914443
0.4999 0.920988
0.5000 0.926830
0.5001 0.932235
0.5002 0.937494
0.5003 0.942560
0.5004 0.947381
0.5005 0.951909
0.5006 0.956094
0.5007 0.959886
0.5008 0.963236
0.5009 0.966093
0.5010 0.968410
0.5011 0.970359
0.5012 0.972151
0.5013 0.973794
0.5014 0.975298
0.5015 0.976670
0.5016 0.977917
0.5017 0.979049
0.5018 0.980073
0.5019 0.980998
0.5020 0.981832
0.5021 0.982579
0.5022 0.983249
0.5023 0.983855
0.5024 0.984410
0.5025 0.984928
0.5026 0.985423
0.5027 0.985907
0.5028 0.986395
0.5029 0.986899
0.5030 0.987433
0.5031 0.988023
0.5032 0.988672
0.5033 0.989352
0.5034 0.990040
0.5035 0.990710
0.5036 0.991337
0.5037 0.991894
0.5038 0.992357
0.5039 0.992700
0.5040 0.992900
0.5041 0.993015
0.5042 0.993120
0.5043 0.993217
0.5044 0.993304
0.5045 0.993379
0.5046 0.993443
0.5047 0.993494
0.5048 0.993532
0.5049 0.993555
0.5050 0.993563
0.5051 0.993361
0.5052 0.992801
0.5053 0.991948
0.5054 0.990867
0.5055 0.989622
0.5056 0.988281
0.5057 0.986906
0.5058 0.985564
0.5059 0.984320
0.5060 0.983237
0.5061 0.982184
0.5062 0.981018
0.5063 0.979790
0.5064 0.978555
0.5065 0.977366
0.5066 0.976274
0.5067 0.975333
0.5068 0.974595
0.5069 0.974113
0.5070 0.973940
0.5071 0.973992
0.5072 0.974143
0.5073 0.974380
0.5074 0.974693
0.5075 0.975068
0.5076 0.975495
0.5077 0.975963
0.5078 0.976460
0.5079 0.976974
0.5080 0.977493
0.5081 0.978087
0.5082 0.978815
0.5083 0.979658
0.5084 0.980596
0.5085 0.981609
0.5086 0.982677
0.5087 0.983781
0.5088 0.984899
0.5089 0.986013
0.5090 0.987103
0.5091 0.988309
0.5092 0.989729
0.5093 0.991285
0.5094 0.992895
0.5095 0.994478
0.5096 0.995955
0.5097 0.997243
0.5098 0.998263
0.5099 0.998934
0.5100 0.999179
0.5101 0.999166
0.5102 0.999126
0.5103 0.999062
0.5104 0.998974
0.5105 0.998864
0.5106 0.998732
0.5107 0.998580
0.5108 0.998409
0.5109 0.998220
0.5110 0.998011
0.5111 0.997496
0.5112 0.996469
0.5113 0.995052
0.5114 0.993367
0.5115 0.991543
0.5116 0.989704
0.5117 0.987973
0.5118 0.986476
0.5119 0.985337
0.5120 0.984685
0.5121 0.984321
0.5122 0.983983
0.5123 0.983672
0.5124 0.983390
0.5125 0.983141
0.5126 0.982930
0.5127 0.982760
0.5128 0.982633
0.5129 0.982555
0.5130 0.982529
0.5131 0.982828
0.5132 0.983641
0.5133 0.984858
0.5134 0.986368
0.5135 0.988062
0.5136 0.989822
0.5137 0.991539
0.5138 0.993101
0.5139 0.994396
0.5140 0.995308
0.5141 0.995997
0.5142 0.996676
0.5143 0.997332
0.5144 0.997949
0.5145 0.998512
0.5146 0.999007
0.5147 0.999419
0.5148 0.999732
0.5149 0.999930
0.5150 0.999998
0.5151 0.999865
0.5152 0.999489
0.5153 0.998900
0.5154 0.998133
0.5155 0.997224
0.5156 0.996205
0.5157 0.995108
0.5158 0.993968
0.5159 0.992818
0.5160 0.991691
0.5161 0.990514
0.5162 0.989197
0.5163 0.987754
0.5164 0.986200
0.5165 0.984547
0.5166 0.982809
0.5167 0.980999
0.5168 0.979132
0.5169 0.977220
0.5170 0.975277
0.5171 0.973289
0.5172 0.971227
0.5173 0.969084
0.5174 0.966851
0.5175 0.964521
0.5176 0.962088
0.5177 0.959542
0.5178 0.956877
0.5179 0.954085
0.5180 0.951159
0.5181 0.948034
0.5182 0.944671
0.5183 0.941090
0.5184 0.937310
0.5185 0.933351
0.5186 0.929235
0.5187 0.924982
0.5188 0.920610
0.5189 0.916143
0.5190 0.911598
0.5191 0.906871
0.5192 0.901869
0.5193 0.896640
0.5194 0.891227
0.5195 0.885671
0.5196 0.880021
0.5197 0.874319
0.5198 0.868610
0.5199 0.862938
0.5200 0.857348
0.5201 0.851800
0.5202 0.846227
0.5203 0.840629
0.5204 0.835008
0.5205 0.829365
0.5206 0.823702
0.5207 0.818019
0.5208 0.812319
0.5209 0.806601
0.5210 0.800868
0.5211 0.795118
0.5212 0.789347
0.5213 0.783557
0.5214 0.777748
0.5215 0.771920
0.5216 0.766073
0.5217 0.760209
0.5218 0.754326
0.5219 0.748427
0.5220 0.742510
0.5221 0.736576
0.5222 0.730622
0.5223 0.724651
0.5224 0.718660
0.5225 0.712652
0.5226 0.706625
0.5227 0.700581
0.5228 0.694518
0.5229 0.688439
0.5230 0.682341
0.5231 0.676219
0.5232 0.670067
0.5233 0.663891
0.5234 0.657694
0.5235 0.651483
0.5236 0.645261
0.5237 0.639034
0.5238 0.632806
0.5239 0.626583
0.5240 0.620369
0.5241 0.614177
0.5242 0.608009
0.5243 0.601854
0.5244 0.595701
0.5245 0.589538
0.5246 0.583354
0.5247 0.577138
0.5248 0.570880
0.5249 0.564567
0.5250 0.558188
0.5251 0.551750
0.5252 0.545262
0.5253 0.538729
0.5254 0.532154
0.5255 0.525539
0.5256 0.518886
0.5257 0.512197
0.5258 0.505477
0.5259 0.498726
0.5260 0.491948
0.5261 0.485143
0.5262 0.478310
0.5263 0.471444
0.5264 0.464545
0.5265 0.457609
0.5266 0.450633
0.5267 0.443615
0.5268 0.436553
0.5269 0.429444
0.5270 0.422285
0.5271 0.415089
0.5272 0.407866
0.5273 0.400606
0.5274 0.393303
0.5275 0.385948
0.5276 0.378533
0.5277 0.371050
0.5278 0.363491
0.5279 0.355849
0.5280 0.348114
0.5281 0.340256
0.5282 0.332265
0.5283 0.324164
0.5284 0.315974
0.5285 0.307718
0.5286 0.299419
0.5287 0.291099
0.5288 0.282780
0.5289 0.274486
0.5290 0.266238
0.5291 0.257984
0.5292 0.249670
0.5293 0.241320
0.5294 0.232956
0.5295 0.224602
0.5296 0.216280
0.5297 0.208015
0.5298 0.199828
0.5299 0.191744
0.5300 0.183783
0.5301 0.175826
0.5302 0.167780
0.5303 0.159711
0.5304 0.151686
0.5305 0.143769
0.5306 0.136030
0.5307 0.128530
0.5308 0.121345
0.5309 0.114529
0.5310 0.108161
0.5311 0.102068
0.5312 0.096079
0.5313 0.090231
0.5314 0.084566
0.5315 0.079123
0.5316 0.073942
0.5317 0.069066
0.5318 0.064530
0.5319 0.060384
0.5320 0.056654
0.5321 0.053236
0.5322 0.049977
0.5323 0.046885
0.5324 0.043960
0.5325 0.041208
0.5326 0.038631
0.5327 0.036235
0.5328 0.034021
0.5329 0.031994
0.5330 0.030156
0.5331 0.028465
0.5332 0.026873
0.5333 0.025375
0.5334 0.023967
0.5335 0.022645
0.5336 0.021406
0.5337 0.020245
0.5338 0.019159
0.5339 0.018142
0.5340 0.017192
0.5341 0.016296
0.5342 0.015445
0.5343 0.014636
0.5344 0.013869
0.5345 0.013143
0.5346 0.012456
0.5347 0.011808
0.5348 0.011197
0.5349 0.010622
0.5350 0.010083
0.5351 0.009570
0.5352 0.009080
0.5353 0.008611
0.5354 0.008165
0.5355 0.007740
0.5356 0.007337
0.5357 0.006957
0.5358 0.006599
0.5359 0.006263
0.5360 0.005950
0.5361 0.005655
0.5362 0.005374
0.5363 0.005106
0.5364 0.004851
0.5365 0.004609
0.5366 0.004379
0.5367 0.004161
0.5368 0.003955
0.5369 0.003761
0.5370 0.003577
0.5371 0.003403
0.5372 0.003236
0.5373 0.003076
0.5374 0.002922
0.5375 0.002776
0.5376 0.002637
0.5377 0.002506
0.5378 0.002383
0.5379 0.002268
0.5380 0.002161
0.5381 0.002059
# -------------------
# H08_AHI Band Band 3
# -------------------
0.5801 0.002086
0.5802 0.002184
0.5803 0.002290
0.5804 0.002405
0.5805 0.002529
0.5806 0.002661
0.5807 0.002802
0.5808 0.002952
0.5809 0.003110
0.5810 0.003279
0.5811 0.003461
0.5812 0.003662
0.5813 0.003881
0.5814 0.004119
0.5815 0.004375
0.5816 0.004649
0.5817 0.004940
0.5818 0.005250
0.5819 0.005576
0.5820 0.005920
0.5821 0.006292
0.5822 0.006702
0.5823 0.007150
0.5824 0.007634
0.5825 0.008151
0.5826 0.008701
0.5827 0.009283
0.5828 0.009893
0.5829 0.010532
0.5830 0.011199
0.5831 0.011920
0.5832 0.012718
0.5833 0.013585
0.5834 0.014510
0.5835 0.015481
0.5836 0.016490
0.5837 0.017526
0.5838 0.018578
0.5839 0.019637
0.5840 0.020691
0.5841 0.021772
0.5842 0.022908
0.5843 0.024086
0.5844 0.025292
0.5845 0.026515
0.5846 0.027740
0.5847 0.028955
0.5848 0.030147
0.5849 0.031303
0.5850 0.032409
0.5851 0.033462
0.5852 0.034474
0.5853 0.035457
0.5854 0.036420
0.5855 0.037374
0.5856 0.038329
0.5857 0.039296
0.5858 0.040285
0.5859 0.041307
0.5860 0.042372
0.5861 0.043460
0.5862 0.044551
0.5863 0.045653
0.5864 0.046774
0.5865 0.047924
0.5866 0.049112
0.5867 0.050346
0.5868 0.051634
0.5869 0.052986
0.5870 0.054411
0.5871 0.055915
0.5872 0.057499
0.5873 0.059165
0.5874 0.060911
0.5875 0.062738
0.5876 0.064646
0.5877 0.066634
0.5878 0.068704
0.5879 0.070855
0.5880 0.073087
0.5881 0.075450
0.5882 0.077982
0.5883 0.080667
0.5884 0.083483
0.5885 0.086412
0.5886 0.089436
0.5887 0.092537
0.5888 0.095694
0.5889 0.098891
0.5890 0.102109
0.5891 0.105420
0.5892 0.108889
0.5893 0.112482
0.5894 0.116165
0.5895 0.119905
0.5896 0.123670
0.5897 0.127425
0.5898 0.131138
0.5899 0.134775
0.5900 0.138302
0.5901 0.141747
0.5902 0.145158
0.5903 0.148538
0.5904 0.151888
0.5905 0.155210
0.5906 0.158507
0.5907 0.161781
0.5908 0.165033
0.5909 0.168266
0.5910 0.171482
0.5911 0.174675
0.5912 0.177839
0.5913 0.180978
0.5914 0.184095
0.5915 0.187194
0.5916 0.190278
0.5917 0.193351
0.5918 0.196415
0.5919 0.199475
0.5920 0.202533
0.5921 0.205588
0.5922 0.208635
0.5923 0.211673
0.5924 0.214702
0.5925 0.217722
0.5926 0.220733
0.5927 0.223734
0.5928 0.226724
0.5929 0.229704
0.5930 0.232673
0.5931 0.235598
0.5932 0.238462
0.5933 0.241287
0.5934 0.244094
0.5935 0.246906
0.5936 0.249746
0.5937 0.252636
0.5938 0.255596
0.5939 0.258650
0.5940 0.261820
0.5941 0.265087
0.5942 0.268418
0.5943 0.271821
0.5944 0.275301
0.5945 0.278865
0.5946 0.282521
0.5947 0.286275
0.5948 0.290134
0.5949 0.294103
0.5950 0.298190
0.5951 0.302465
0.5952 0.306973
0.5953 0.311673
0.5954 0.316522
0.5955 0.321477
0.5956 0.326499
0.5957 0.331546
0.5958 0.336577
0.5959 0.341549
0.5960 0.346423
0.5961 0.351232
0.5962 0.356034
0.5963 0.360832
0.5964 0.365628
0.5965 0.370421
0.5966 0.375214
0.5967 0.380007
0.5968 0.384801
0.5969 0.389597
0.5970 0.394397
0.5971 0.399169
0.5972 0.403896
0.5973 0.408597
0.5974 0.413292
0.5975 0.418001
0.5976 0.422745
0.5977 0.427544
0.5978 0.432417
0.5979 0.437387
0.5980 0.442472
0.5981 0.447666
0.5982 0.452947
0.5983 0.458312
0.5984 0.463759
0.5985 0.469281
0.5986 0.474876
0.5987 0.480538
0.5988 0.486266
0.5989 0.492056
0.5990 0.497904
0.5991 0.503842
0.5992 0.509897
0.5993 0.516051
0.5994 0.522287
0.5995 0.528584
0.5996 0.534925
0.5997 0.541293
0.5998 0.547669
0.5999 0.554034
0.6000 0.560371
0.6001 0.566655
0.6002 0.572888
0.6003 0.579099
0.6004 0.585315
0.6005 0.591564
0.6006 0.597873
0.6007 0.604271
0.6008 0.610784
0.6009 0.617440
0.6010 0.624265
0.6011 0.631299
0.6012 0.638536
0.6013 0.645940
0.6014 0.653481
0.6015 0.661126
0.6016 0.668843
0.6017 0.676596
0.6018 0.684355
0.6019 0.692086
0.6020 0.699756
0.6021 0.707510
0.6022 0.715452
0.6023 0.723512
0.6024 0.731614
0.6025 0.739681
0.6026 0.747639
0.6027 0.755413
0.6028 0.762918
0.6029 0.770087
0.6030 0.776848
0.6031 0.783322
0.6032 0.789672
0.6033 0.795878
0.6034 0.801920
0.6035 0.807775
0.6036 0.813412
0.6037 0.818817
0.6038 0.823967
0.6039 0.828838
0.6040 0.833400
0.6041 0.837769
0.6042 0.842041
0.6043 0.846189
0.6044 0.850185
0.6045 0.854004
0.6046 0.857621
0.6047 0.861005
0.6048 0.864127
0.6049 0.866965
0.6050 0.869495
0.6051 0.871787
0.6052 0.873949
0.6053 0.875985
0.6054 0.877899
0.6055 0.879692
0.6056 0.881371
0.6057 0.882941
0.6058 0.884404
0.6059 0.885763
0.6060 0.887025
0.6061 0.888222
0.6062 0.889377
0.6063 0.890485
0.6064 0.891538
0.6065 0.892530
0.6066 0.893452
0.6067 0.894298
0.6068 0.895061
0.6069 0.895732
0.6070 0.896305
0.6071 0.896809
0.6072 0.897278
0.6073 0.897713
0.6074 0.898115
0.6075 0.898487
0.6076 0.898830
0.6077 0.899144
0.6078 0.899432
0.6079 0.899696
0.6080 0.899935
0.6081 0.900146
0.6082 0.900327
0.6083 0.900485
0.6084 0.900629
0.6085 0.900765
0.6086 0.900901
0.6087 0.901046
0.6088 0.901205
0.6089 0.901387
0.6090 0.901600
0.6091 0.901845
0.6092 0.902121
0.6093 0.902428
0.6094 0.902763
0.6095 0.903125
0.6096 0.903515
0.6097 0.903931
0.6098 0.904372
0.6099 0.904838
0.6100 0.905327
0.6101 0.905863
0.6102 0.906464
0.6103 0.907126
0.6104 0.907842
0.6105 0.908605
0.6106 0.909411
0.6107 0.910253
0.6108 0.911125
0.6109 0.912022
0.6110 0.912937
0.6111 0.913902
0.6112 0.914949
0.6113 0.916061
0.6114 0.917227
0.6115 0.918434
0.6116 0.919668
0.6117 0.920917
0.6118 0.922167
0.6119 0.923406
0.6120 0.924621
0.6121 0.925844
0.6122 0.927110
0.6123 0.928401
0.6124 0.929704
0.6125 0.931003
0.6126 0.932283
0.6127 0.933527
0.6128 0.934721
0.6129 0.935851
0.6130 0.936900
0.6131 0.937925
0.6132 0.938976
0.6133 0.940028
0.6134 0.941056
0.6135 0.942039
0.6136 0.942948
0.6137 0.943761
0.6138 0.944455
0.6139 0.945001
0.6140 0.945380
0.6141 0.945659
0.6142 0.945923
0.6143 0.946168
0.6144 0.946392
0.6145 0.946591
0.6146 0.946761
0.6147 0.946900
0.6148 0.947003
0.6149 0.947067
0.6150 0.947090
0.6151 0.947015
0.6152 0.946812
0.6153 0.946495
0.6154 0.946090
0.6155 0.945616
0.6156 0.945093
0.6157 0.944544
0.6158 0.943988
0.6159 0.943448
0.6160 0.942942
0.6161 0.942430
0.6162 0.941866
0.6163 0.941264
0.6164 0.940640
0.6165 0.940007
0.6166 0.939381
0.6167 0.938777
0.6168 0.938210
0.6169 0.937694
0.6170 0.937245
0.6171 0.936821
0.6172 0.936384
0.6173 0.935946
0.6174 0.935521
0.6175 0.935124
0.6176 0.934767
0.6177 0.934465
0.6178 0.934234
0.6179 0.934083
0.6180 0.934031
0.6181 0.934066
0.6182 0.934168
0.6183 0.934333
0.6184 0.934550
0.6185 0.934814
0.6186 0.935118
0.6187 0.935455
0.6188 0.935819
0.6189 0.936202
0.6190 0.936598
0.6191 0.937084
0.6192 0.937717
0.6193 0.938483
0.6194 0.939356
0.6195 0.940314
0.6196 0.941339
0.6197 0.942406
0.6198 0.943495
0.6199 0.944582
0.6200 0.945649
0.6201 0.946749
0.6202 0.947933
0.6203 0.949185
0.6204 0.950484
0.6205 0.951807
0.6206 0.953135
0.6207 0.954448
0.6208 0.955724
0.6209 0.956943
0.6210 0.958085
0.6211 0.959206
0.6212 0.960357
0.6213 0.961517
0.6214 0.962662
0.6215 0.963768
0.6216 0.964809
0.6217 0.965767
0.6218 0.966612
0.6219 0.967325
0.6220 0.967882
0.6221 0.968350
0.6222 0.968805
0.6223 0.969240
0.6224 0.969645
0.6225 0.970013
0.6226 0.970333
0.6227 0.970598
0.6228 0.970797
0.6229 0.970925
0.6230 0.970968
0.6231 0.970892
0.6232 0.970677
0.6233 0.970340
0.6234 0.969901
0.6235 0.969375
0.6236 0.968783
0.6237 0.968142
0.6238 0.967471
0.6239 0.966788
0.6240 0.966108
0.6241 0.965363
0.6242 0.964479
0.6243 0.963485
0.6244 0.962399
0.6245 0.961250
0.6246 0.960061
0.6247 0.958854
0.6248 0.957656
0.6249 0.956490
0.6250 0.955377
0.6251 0.954285
0.6252 0.953167
0.6253 0.952034
0.6254 0.950897
0.6255 0.949767
0.6256 0.948655
0.6257 0.947572
0.6258 0.946530
0.6259 0.945538
0.6260 0.944610
0.6261 0.943685
0.6262 0.942720
0.6263 0.941743
0.6264 0.940782
0.6265 0.939866
0.6266 0.939024
0.6267 0.938286
0.6268 0.937677
0.6269 0.937233
0.6270 0.936971
0.6271 0.936823
0.6272 0.936686
0.6273 0.936562
0.6274 0.936450
0.6275 0.936353
0.6276 0.936271
0.6277 0.936206
0.6278 0.936158
0.6279 0.936128
0.6280 0.936121
0.6281 0.936255
0.6282 0.936644
0.6283 0.937238
0.6284 0.938016
0.6285 0.938930
0.6286 0.939952
0.6287 0.941042
0.6288 0.942166
0.6289 0.943288
0.6290 0.944371
0.6291 0.945507
0.6292 0.946782
0.6293 0.948173
0.6294 0.949653
0.6295 0.951195
0.6296 0.952772
0.6297 0.954356
0.6298 0.955922
0.6299 0.957439
0.6300 0.958886
0.6301 0.960317
0.6302 0.961791
0.6303 0.963288
0.6304 0.964782
0.6305 0.966251
0.6306 0.967672
0.6307 0.969019
0.6308 0.970273
0.6309 0.971405
0.6310 0.972400
0.6311 0.973332
0.6312 0.974284
0.6313 0.975228
0.6314 0.976137
0.6315 0.976982
0.6316 0.977737
0.6317 0.978372
0.6318 0.978860
0.6319 0.979173
0.6320 0.979286
0.6321 0.979249
0.6322 0.979144
0.6323 0.978976
0.6324 0.978755
0.6325 0.978486
0.6326 0.978179
0.6327 0.977839
0.6328 0.977474
0.6329 0.977092
0.6330 0.976698
0.6331 0.976207
0.6332 0.975549
0.6333 0.974756
0.6334 0.973866
0.6335 0.972909
0.6336 0.971924
0.6337 0.970942
0.6338 0.970000
0.6339 0.969132
0.6340 0.968369
0.6341 0.967638
0.6342 0.966859
0.6343 0.966060
0.6344 0.965270
0.6345 0.964521
0.6346 0.963839
0.6347 0.963260
0.6348 0.962805
0.6349 0.962515
0.6350 0.962408
0.6351 0.962413
0.6352 0.962431
0.6353 0.962461
0.6354 0.962501
0.6355 0.962552
0.6356 0.962614
0.6357 0.962685
0.6358 0.962766
0.6359 0.962857
0.6360 0.962957
0.6361 0.963196
0.6362 0.963678
0.6363 0.964364
0.6364 0.965224
0.6365 0.966216
0.6366 0.967308
0.6367 0.968460
0.6368 0.969638
0.6369 0.970805
0.6370 0.971926
0.6371 0.973084
0.6372 0.974372
0.6373 0.975757
0.6374 0.977210
0.6375 0.978699
0.6376 0.980192
0.6377 0.981660
0.6378 0.983072
0.6379 0.984394
0.6380 0.985601
0.6381 0.986748
0.6382 0.987905
0.6383 0.989054
0.6384 0.990176
0.6385 0.991252
0.6386 0.992265
0.6387 0.993195
0.6388 0.994022
0.6389 0.994731
0.6390 0.995300
0.6391 0.995794
0.6392 0.996277
0.6393 0.996742
0.6394 0.997177
0.6395 0.997573
0.6396 0.997919
0.6397 0.998206
0.6398 0.998424
0.6399 0.998561
0.6400 0.998611
0.6401 0.998551
0.6402 0.998389
0.6403 0.998134
0.6404 0.997802
0.6405 0.997408
0.6406 0.996964
0.6407 0.996487
0.6408 0.995989
0.6409 0.995485
0.6410 0.994989
0.6411 0.994445
0.6412 0.993799
0.6413 0.993074
0.6414 0.992292
0.6415 0.991473
0.6416 0.990639
0.6417 0.989814
0.6418 0.989017
0.6419 0.988272
0.6420 0.987599
0.6421 0.986950
0.6422 0.986277
0.6423 0.985597
0.6424 0.984927
0.6425 0.984285
0.6426 0.983689
0.6427 0.983158
0.6428 0.982707
0.6429 0.982358
0.6430 0.982123
0.6431 0.981958
0.6432 0.981802
0.6433 0.981659
0.6434 0.981528
0.6435 0.981412
0.6436 0.981314
0.6437 0.981234
0.6438 0.981175
0.6439 0.981138
0.6440 0.981125
0.6441 0.981176
0.6442 0.981315
0.6443 0.981534
0.6444 0.981818
0.6445 0.982153
0.6446 0.982529
0.6447 0.982932
0.6448 0.983350
0.6449 0.983769
0.6450 0.984179
0.6451 0.984613
0.6452 0.985106
0.6453 0.985651
0.6454 0.986234
0.6455 0.986845
0.6456 0.987473
0.6457 0.988106
0.6458 0.988734
0.6459 0.989346
0.6460 0.989931
0.6461 0.990509
0.6462 0.991102
0.6463 0.991703
0.6464 0.992305
0.6465 0.992901
0.6466 0.993482
0.6467 0.994042
0.6468 0.994573
0.6469 0.995068
0.6470 0.995520
0.6471 0.995948
0.6472 0.996374
0.6473 0.996793
0.6474 0.997197
0.6475 0.997581
0.6476 0.997937
0.6477 0.998261
0.6478 0.998546
0.6479 0.998784
0.6480 0.998971
0.6481 0.999129
0.6482 0.999281
0.6483 0.999427
0.6484 0.999561
0.6485 0.999684
0.6486 0.999790
0.6487 0.999877
0.6488 0.999944
0.6489 0.999985
0.6490 0.999999
0.6491 0.999985
0.6492 0.999942
0.6493 0.999876
0.6494 0.999790
0.6495 0.999688
0.6496 0.999573
0.6497 0.999449
0.6498 0.999319
0.6499 0.999188
0.6500 0.999059
0.6501 0.998921
0.6502 0.998765
0.6503 0.998592
0.6504 0.998404
0.6505 0.998205
0.6506 0.997996
0.6507 0.997780
0.6508 0.997559
0.6509 0.997336
0.6510 0.997114
0.6511 0.996882
0.6512 0.996635
0.6513 0.996375
0.6514 0.996106
0.6515 0.995832
0.6516 0.995559
0.6517 0.995289
0.6518 0.995027
0.6519 0.994777
0.6520 0.994543
0.6521 0.994319
0.6522 0.994099
0.6523 0.993883
0.6524 0.993671
0.6525 0.993465
0.6526 0.993266
0.6527 0.993073
0.6528 0.992888
0.6529 0.992712
0.6530 0.992545
0.6531 0.992375
0.6532 0.992195
0.6533 0.992012
0.6534 0.991832
0.6535 0.991661
0.6536 0.991506
0.6537 0.991375
0.6538 0.991272
0.6539 0.991206
0.6540 0.991182
0.6541 0.991187
0.6542 0.991202
0.6543 0.991227
0.6544 0.991260
0.6545 0.991301
0.6546 0.991348
0.6547 0.991402
0.6548 0.991460
0.6549 0.991523
0.6550 0.991590
0.6551 0.991690
0.6552 0.991843
0.6553 0.992038
0.6554 0.992265
0.6555 0.992512
0.6556 0.992769
0.6557 0.993023
0.6558 0.993265
0.6559 0.993482
0.6560 0.993665
0.6561 0.993833
0.6562 0.994008
0.6563 0.994186
0.6564 0.994359
0.6565 0.994523
0.6566 0.994671
0.6567 0.994797
0.6568 0.994894
0.6569 0.994957
0.6570 0.994979
0.6571 0.994967
0.6572 0.994933
0.6573 0.994877
0.6574 0.994804
0.6575 0.994716
0.6576 0.994613
0.6577 0.994500
0.6578 0.994377
0.6579 0.994249
0.6580 0.994115
0.6581 0.993952
0.6582 0.993740
0.6583 0.993483
0.6584 0.993190
0.6585 0.992869
0.6586 0.992525
0.6587 0.992167
0.6588 0.991800
0.6589 0.991434
0.6590 0.991073
0.6591 0.990698
0.6592 0.990287
0.6593 0.989850
0.6594 0.989396
0.6595 0.988935
0.6596 0.988474
0.6597 0.988024
0.6598 0.987594
0.6599 0.987192
0.6600 0.986829
0.6601 0.986475
0.6602 0.986106
0.6603 0.985732
0.6604 0.985366
0.6605 0.985019
0.6606 0.984702
0.6607 0.984429
0.6608 0.984208
0.6609 0.984053
0.6610 0.983976
0.6611 0.983942
0.6612 0.983911
0.6613 0.983884
0.6614 0.983860
0.6615 0.983839
0.6616 0.983822
0.6617 0.983808
0.6618 0.983798
0.6619 0.983792
0.6620 0.983791
0.6621 0.983828
0.6622 0.983929
0.6623 0.984084
0.6624 0.984283
0.6625 0.984513
0.6626 0.984764
0.6627 0.985025
0.6628 0.985285
0.6629 0.985532
0.6630 0.985756
0.6631 0.985982
0.6632 0.986235
0.6633 0.986506
0.6634 0.986783
0.6635 0.987054
0.6636 0.987311
0.6637 0.987541
0.6638 0.987732
0.6639 0.987875
0.6640 0.987959
0.6641 0.988009
0.6642 0.988054
0.6643 0.988095
0.6644 0.988133
0.6645 0.988165
0.6646 0.988192
0.6647 0.988214
0.6648 0.988230
0.6649 0.988240
0.6650 0.988243
0.6651 0.988197
0.6652 0.988070
0.6653 0.987865
0.6654 0.987594
0.6655 0.987266
0.6656 0.986889
0.6657 0.986470
0.6658 0.986019
0.6659 0.985545
0.6660 0.985056
0.6661 0.984478
0.6662 0.983747
0.6663 0.982879
0.6664 0.981887
0.6665 0.980782
0.6666 0.979584
0.6667 0.978307
0.6668 0.976965
0.6669 0.975572
0.6670 0.974142
0.6671 0.972603
0.6672 0.970888
0.6673 0.969005
0.6674 0.966982
0.6675 0.964838
0.6676 0.962592
0.6677 0.960260
0.6678 0.957865
0.6679 0.955426
0.6680 0.952963
0.6681 0.950396
0.6682 0.947658
0.6683 0.944781
0.6684 0.941798
0.6685 0.938735
0.6686 0.935627
0.6687 0.932505
0.6688 0.929400
0.6689 0.926343
0.6690 0.923368
0.6691 0.920444
0.6692 0.917527
0.6693 0.914615
0.6694 0.911711
0.6695 0.908813
0.6696 0.905923
0.6697 0.903040
0.6698 0.900167
0.6699 0.897302
0.6700 0.894448
0.6701 0.891615
0.6702 0.888810
0.6703 0.886026
0.6704 0.883253
0.6705 0.880482
0.6706 0.877705
0.6707 0.874912
0.6708 0.872095
0.6709 0.869245
0.6710 0.866354
0.6711 0.863432
0.6712 0.860494
0.6713 0.857537
0.6714 0.854559
0.6715 0.851556
0.6716 0.848524
0.6717 0.845461
0.6718 0.842365
0.6719 0.839232
0.6720 0.836059
0.6721 0.832851
0.6722 0.829614
0.6723 0.826346
0.6724 0.823042
0.6725 0.819699
0.6726 0.816312
0.6727 0.812880
0.6728 0.809399
0.6729 0.805865
0.6730 0.802273
0.6731 0.798602
0.6732 0.794845
0.6733 0.791013
0.6734 0.787121
0.6735 0.783181
0.6736 0.779209
0.6737 0.775219
0.6738 0.771224
0.6739 0.767237
0.6740 0.763274
0.6741 0.759317
0.6742 0.755342
0.6743 0.751352
0.6744 0.747351
0.6745 0.743343
0.6746 0.739332
0.6747 0.735322
0.6748 0.731315
0.6749 0.727317
0.6750 0.723330
0.6751 0.719347
0.6752 0.715360
0.6753 0.711372
0.6754 0.707385
0.6755 0.703404
0.6756 0.699431
0.6757 0.695469
0.6758 0.691522
0.6759 0.687592
0.6760 0.683682
0.6761 0.679792
0.6762 0.675915
0.6763 0.672052
0.6764 0.668201
0.6765 0.664364
0.6766 0.660539
0.6767 0.656726
0.6768 0.652924
0.6769 0.649133
0.6770 0.645352
0.6771 0.641591
0.6772 0.637851
0.6773 0.634129
0.6774 0.630420
0.6775 0.626719
0.6776 0.623021
0.6777 0.619322
0.6778 0.615615
0.6779 0.611898
0.6780 0.608164
0.6781 0.604423
0.6782 0.600683
0.6783 0.596942
0.6784 0.593197
0.6785 0.589445
0.6786 0.585683
0.6787 0.581908
0.6788 0.578117
0.6789 0.574308
0.6790 0.570477
0.6791 0.566652
0.6792 0.562849
0.6793 0.559053
0.6794 0.555248
0.6795 0.551415
0.6796 0.547539
0.6797 0.543604
0.6798 0.539592
0.6799 0.535488
0.6800 0.531272
0.6801 0.526959
0.6802 0.522572
0.6803 0.518106
0.6804 0.513557
0.6805 0.508920
0.6806 0.504189
0.6807 0.499359
0.6808 0.494427
0.6809 0.489389
0.6810 0.484240
0.6811 0.478932
0.6812 0.473440
0.6813 0.467784
0.6814 0.461996
0.6815 0.456101
0.6816 0.450126
0.6817 0.444096
0.6818 0.438037
0.6819 0.431976
0.6820 0.425939
0.6821 0.419919
0.6822 0.413884
0.6823 0.407823
0.6824 0.401727
0.6825 0.395585
0.6826 0.389384
0.6827 0.383115
0.6828 0.376768
0.6829 0.370332
0.6830 0.363797
0.6831 0.357139
0.6832 0.350353
0.6833 0.343454
0.6834 0.336466
0.6835 0.329405
0.6836 0.322293
0.6837 0.315146
0.6838 0.307985
0.6839 0.300827
0.6840 0.293692
0.6841 0.286508
0.6842 0.279218
0.6843 0.271858
0.6844 0.264463
0.6845 0.257071
0.6846 0.249718
0.6847 0.242442
0.6848 0.235280
0.6849 0.228269
0.6850 0.221441
0.6851 0.214732
0.6852 0.208065
0.6853 0.201460
0.6854 0.194934
0.6855 0.188512
0.6856 0.182211
0.6857 0.176052
0.6858 0.170055
0.6859 0.164238
0.6860 0.158622
0.6861 0.153155
0.6862 0.147781
0.6863 0.142515
0.6864 0.137365
0.6865 0.132344
0.6866 0.127465
0.6867 0.122738
0.6868 0.118177
0.6869 0.113793
0.6870 0.109598
0.6871 0.105555
0.6872 0.101618
0.6873 0.097790
0.6874 0.094076
0.6875 0.090481
0.6876 0.087009
0.6877 0.083667
0.6878 0.080458
0.6879 0.077387
0.6880 0.074463
0.6881 0.071657
0.6882 0.068940
0.6883 0.066314
0.6884 0.063777
0.6885 0.061330
0.6886 0.058974
0.6887 0.056710
0.6888 0.054537
0.6889 0.052458
0.6890 0.050471
0.6891 0.048560
0.6892 0.046712
0.6893 0.044925
0.6894 0.043200
0.6895 0.041537
0.6896 0.039937
0.6897 0.038400
0.6898 0.036926
0.6899 0.035517
0.6900 0.034172
0.6901 0.032878
0.6902 0.031625
0.6903 0.030413
0.6904 0.029243
0.6905 0.028117
0.6906 0.027035
0.6907 0.025998
0.6908 0.025008
0.6909 0.024067
0.6910 0.023174
0.6911 0.022322
0.6912 0.021500
0.6913 0.020710
0.6914 0.019950
0.6915 0.019219
0.6916 0.018518
0.6917 0.017847
0.6918 0.017203
0.6919 0.016589
0.6920 0.016002
0.6921 0.015439
0.6922 0.014896
0.6923 0.014373
0.6924 0.013870
0.6925 0.013385
0.6926 0.012918
0.6927 0.012470
0.6928 0.012039
0.6929 0.011625
0.6930 0.011228
0.6931 0.010846
0.6932 0.010475
0.6933 0.010117
0.6934 0.009771
0.6935 0.009437
0.6936 0.009115
0.6937 0.008806
0.6938 0.008509
0.6939 0.008224
0.6940 0.007951
0.6941 0.007690
0.6942 0.007438
0.6943 0.007195
0.6944 0.006961
0.6945 0.006735
0.6946 0.006516
0.6947 0.006305
0.6948 0.006100
0.6949 0.005902
0.6950 0.005710
0.6951 0.005522
0.6952 0.005339
0.6953 0.005161
0.6954 0.004988
0.6955 0.004821
0.6956 0.004658
0.6957 0.004501
0.6958 0.004350
0.6959 0.004205
0.6960 0.004065
0.6961 0.003931
0.6962 0.003801
0.6963 0.003675
0.6964 0.003554
0.6965 0.003436
0.6966 0.003321
0.6967 0.003211
0.6968 0.003104
0.6969 0.003000
0.6970 0.002900
0.6971 0.002803
0.6972 0.002709
0.6973 0.002617
0.6974 0.002529
0.6975 0.002442
0.6976 0.002359
0.6977 0.002277
0.6978 0.002198
0.6979 0.002120
0.6980 0.002044
# -------------------
# H08_AHI Band Band 4
# -------------------
0.8225 0.002001
0.8226 0.002094
0.8227 0.002186
0.8228 0.002278
0.8229 0.002369
0.8230 0.002460
0.8231 0.002550
0.8232 0.002636
0.8233 0.002720
0.8234 0.002803
0.8235 0.002887
0.8236 0.002972
0.8237 0.003060
0.8238 0.003152
0.8239 0.003250
0.8240 0.003353
0.8241 0.003465
0.8242 0.003584
0.8243 0.003711
0.8244 0.003843
0.8245 0.003980
0.8246 0.004120
0.8247 0.004263
0.8248 0.004408
0.8249 0.004553
0.8250 0.004698
0.8251 0.004843
0.8252 0.004992
0.8253 0.005144
0.8254 0.005298
0.8255 0.005454
0.8256 0.005612
0.8257 0.005769
0.8258 0.005927
0.8259 0.006085
0.8260 0.006242
0.8261 0.006397
0.8262 0.006549
0.8263 0.006701
0.8264 0.006853
0.8265 0.007006
0.8266 0.007161
0.8267 0.007319
0.8268 0.007480
0.8269 0.007647
0.8270 0.007818
0.8271 0.007991
0.8272 0.008163
0.8273 0.008335
0.8274 0.008511
0.8275 0.008693
0.8276 0.008883
0.8277 0.009085
0.8278 0.009301
0.8279 0.009533
0.8280 0.009785
0.8281 0.010059
0.8282 0.010357
0.8283 0.010679
0.8284 0.011029
0.8285 0.011404
0.8286 0.011808
0.8287 0.012239
0.8288 0.012701
0.8289 0.013192
0.8290 0.013716
0.8291 0.014293
0.8292 0.014942
0.8293 0.015663
0.8294 0.016445
0.8295 0.017291
0.8296 0.018188
0.8297 0.019141
0.8298 0.020136
0.8299 0.021176
0.8300 0.022251
0.8301 0.023391
0.8302 0.024617
0.8303 0.025929
0.8304 0.027329
0.8305 0.028808
0.8306 0.030377
0.8307 0.032019
0.8308 0.033747
0.8309 0.035547
0.8310 0.037430
0.8311 0.039424
0.8312 0.041571
0.8313 0.043867
0.8314 0.046295
0.8315 0.048864
0.8316 0.051545
0.8317 0.054356
0.8318 0.057267
0.8319 0.060286
0.8320 0.063398
0.8321 0.066669
0.8322 0.070151
0.8323 0.073819
0.8324 0.077679
0.8325 0.081686
0.8326 0.085856
0.8327 0.090144
0.8328 0.094552
0.8329 0.099054
0.8330 0.103643
0.8331 0.108392
0.8332 0.113359
0.8333 0.118543
0.8334 0.123882
0.8335 0.129375
0.8336 0.134968
0.8337 0.140643
0.8338 0.146366
0.8339 0.152105
0.8340 0.157834
0.8341 0.163573
0.8342 0.169373
0.8343 0.175227
0.8344 0.181151
0.8345 0.187138
0.8346 0.193196
0.8347 0.199328
0.8348 0.205533
0.8349 0.211824
0.8350 0.218189
0.8351 0.224688
0.8352 0.231319
0.8353 0.238071
0.8354 0.244917
0.8355 0.251829
0.8356 0.258789
0.8357 0.265767
0.8358 0.272739
0.8359 0.279684
0.8360 0.286574
0.8361 0.293428
0.8362 0.300279
0.8363 0.307131
0.8364 0.313984
0.8365 0.320843
0.8366 0.327709
0.8367 0.334584
0.8368 0.341470
0.8369 0.348371
0.8370 0.355288
0.8371 0.362221
0.8372 0.369171
0.8373 0.376134
0.8374 0.383109
0.8375 0.390093
0.8376 0.397086
0.8377 0.404084
0.8378 0.411086
0.8379 0.418091
0.8380 0.425095
0.8381 0.432121
0.8382 0.439178
0.8383 0.446255
0.8384 0.453341
0.8385 0.460424
0.8386 0.467491
0.8387 0.474531
0.8388 0.481531
0.8389 0.488478
0.8390 0.495367
0.8391 0.502183
0.8392 0.508950
0.8393 0.515668
0.8394 0.522350
0.8395 0.529005
0.8396 0.535640
0.8397 0.542266
0.8398 0.548890
0.8399 0.555521
0.8400 0.562169
0.8401 0.568835
0.8402 0.575513
0.8403 0.582197
0.8404 0.588878
0.8405 0.595551
0.8406 0.602207
0.8407 0.608842
0.8408 0.615445
0.8409 0.622014
0.8410 0.628537
0.8411 0.635033
0.8412 0.641512
0.8413 0.647973
0.8414 0.654410
0.8415 0.660815
0.8416 0.667187
0.8417 0.673517
0.8418 0.679803
0.8419 0.686040
0.8420 0.692217
0.8421 0.698344
0.8422 0.704416
0.8423 0.710444
0.8424 0.716431
0.8425 0.722378
0.8426 0.728293
0.8427 0.734176
0.8428 0.740034
0.8429 0.745870
0.8430 0.751688
0.8431 0.757503
0.8432 0.763319
0.8433 0.769124
0.8434 0.774907
0.8435 0.780655
0.8436 0.786361
0.8437 0.792004
0.8438 0.797583
0.8439 0.803078
0.8440 0.808482
0.8441 0.813830
0.8442 0.819146
0.8443 0.824425
0.8444 0.829647
0.8445 0.834803
0.8446 0.839882
0.8447 0.844859
0.8448 0.849737
0.8449 0.854486
0.8450 0.859107
0.8451 0.863684
0.8452 0.868275
0.8453 0.872844
0.8454 0.877339
0.8455 0.881723
0.8456 0.885954
0.8457 0.889964
0.8458 0.893745
0.8459 0.897214
0.8460 0.900357
0.8461 0.903322
0.8462 0.906235
0.8463 0.909079
0.8464 0.911800
0.8465 0.914363
0.8466 0.916739
0.8467 0.918850
0.8468 0.920699
0.8469 0.922212
0.8470 0.923366
0.8471 0.924324
0.8472 0.925229
0.8473 0.926087
0.8474 0.926878
0.8475 0.927586
0.8476 0.928207
0.8477 0.928705
0.8478 0.929085
0.8479 0.929325
0.8480 0.929405
0.8481 0.929374
0.8482 0.929262
0.8483 0.929089
0.8484 0.928861
0.8485 0.928579
0.8486 0.928257
0.8487 0.927898
0.8488 0.927511
0.8489 0.927104
0.8490 0.926675
0.8491 0.926164
0.8492 0.925498
0.8493 0.924693
0.8494 0.923780
0.8495 0.922758
0.8496 0.921663
0.8497 0.920507
0.8498 0.919309
0.8499 0.918091
0.8500 0.916864
0.8501 0.915588
0.8502 0.914213
0.8503 0.912735
0.8504 0.911183
0.8505 0.909560
0.8506 0.907879
0.8507 0.906156
0.8508 0.904397
0.8509 0.902619
0.8510 0.900827
0.8511 0.898929
0.8512 0.896870
0.8513 0.894685
0.8514 0.892437
0.8515 0.890179
0.8516 0.887971
0.8517 0.885857
0.8518 0.883899
0.8519 0.882159
0.8520 0.880664
0.8521 0.879355
0.8522 0.878106
0.8523 0.876916
0.8524 0.875798
0.8525 0.874745
0.8526 0.873769
0.8527 0.872875
0.8528 0.872058
0.8529 0.871338
0.8530 0.870706
0.8531 0.870115
0.8532 0.869529
0.8533 0.868958
0.8534 0.868416
0.8535 0.867919
0.8536 0.867477
0.8537 0.867112
0.8538 0.866833
0.8539 0.866649
0.8540 0.866594
0.8541 0.866659
0.8542 0.866847
0.8543 0.867141
0.8544 0.867510
0.8545 0.867941
0.8546 0.868411
0.8547 0.868897
0.8548 0.869379
0.8549 0.869838
0.8550 0.870254
0.8551 0.870631
0.8552 0.871000
0.8553 0.871365
0.8554 0.871732
0.8555 0.872106
0.8556 0.872495
0.8557 0.872901
0.8558 0.873330
0.8559 0.873792
0.8560 0.874287
0.8561 0.874828
0.8562 0.875423
0.8563 0.876062
0.8564 0.876743
0.8565 0.877460
0.8566 0.878207
0.8567 0.878981
0.8568 0.879775
0.8569 0.880585
0.8570 0.881406
0.8571 0.882243
0.8572 0.883105
0.8573 0.883998
0.8574 0.884918
0.8575 0.885872
0.8576 0.886860
0.8577 0.887881
0.8578 0.888942
0.8579 0.890042
0.8580 0.891179
0.8581 0.892377
0.8582 0.893633
0.8583 0.894947
0.8584 0.896320
0.8585 0.897741
0.8586 0.899209
0.8587 0.900723
0.8588 0.902272
0.8589 0.903858
0.8590 0.905478
0.8591 0.907151
0.8592 0.908910
0.8593 0.910736
0.8594 0.912616
0.8595 0.914547
0.8596 0.916510
0.8597 0.918493
0.8598 0.920488
0.8599 0.922480
0.8600 0.924459
0.8601 0.926438
0.8602 0.928435
0.8603 0.930449
0.8604 0.932479
0.8605 0.934522
0.8606 0.936577
0.8607 0.938643
0.8608 0.940716
0.8609 0.942796
0.8610 0.944881
0.8611 0.946989
0.8612 0.949136
0.8613 0.951306
0.8614 0.953490
0.8615 0.955675
0.8616 0.957848
0.8617 0.960001
0.8618 0.962115
0.8619 0.964184
0.8620 0.966197
0.8621 0.968166
0.8622 0.970117
0.8623 0.972047
0.8624 0.973950
0.8625 0.975825
0.8626 0.977667
0.8627 0.979470
0.8628 0.981235
0.8629 0.982955
0.8630 0.984633
0.8631 0.986374
0.8632 0.988252
0.8633 0.990197
0.8634 0.992136
0.8635 0.993989
0.8636 0.995686
0.8637 0.997171
0.8638 0.998331
0.8639 0.999118
0.8640 0.999487
0.8641 0.999588
0.8642 0.999672
0.8643 0.999748
0.8644 0.999813
0.8645 0.999869
0.8646 0.999916
0.8647 0.999952
0.8648 0.999978
0.8649 0.999995
0.8650 0.999958
0.8651 0.999438
0.8652 0.998071
0.8653 0.995817
0.8654 0.992933
0.8655 0.989532
0.8656 0.985661
0.8657 0.981517
0.8658 0.977206
0.8659 0.972845
0.8660 0.968540
0.8661 0.963917
0.8662 0.958494
0.8663 0.952497
0.8664 0.946046
0.8665 0.939222
0.8666 0.932219
0.8667 0.925159
0.8668 0.918195
0.8669 0.911452
0.8670 0.905046
0.8671 0.898934
0.8672 0.892892
0.8673 0.886905
0.8674 0.880964
0.8675 0.875048
0.8676 0.869143
0.8677 0.863234
0.8678 0.857305
0.8679 0.851344
0.8680 0.845329
0.8681 0.839272
0.8682 0.833188
0.8683 0.827081
0.8684 0.820958
0.8685 0.814825
0.8686 0.808684
0.8687 0.802543
0.8688 0.796406
0.8689 0.790279
0.8690 0.784167
0.8691 0.778077
0.8692 0.772011
0.8693 0.765960
0.8694 0.759914
0.8695 0.753864
0.8696 0.747802
0.8697 0.741719
0.8698 0.735605
0.8699 0.729449
0.8700 0.723247
0.8701 0.717000
0.8702 0.710713
0.8703 0.704394
0.8704 0.698046
0.8705 0.691669
0.8706 0.685269
0.8707 0.678851
0.8708 0.672414
0.8709 0.665964
0.8710 0.659505
0.8711 0.653000
0.8712 0.646434
0.8713 0.639827
0.8714 0.633193
0.8715 0.626554
0.8716 0.619928
0.8717 0.613336
0.8718 0.606799
0.8719 0.600329
0.8720 0.593950
0.8721 0.587658
0.8722 0.581419
0.8723 0.575229
0.8724 0.569088
0.8725 0.562984
0.8726 0.556913
0.8727 0.550872
0.8728 0.544852
0.8729 0.538848
0.8730 0.532857
0.8731 0.526881
0.8732 0.520927
0.8733 0.514998
0.8734 0.509093
0.8735 0.503210
0.8736 0.497349
0.8737 0.491512
0.8738 0.485695
0.8739 0.479899
0.8740 0.474127
0.8741 0.468387
0.8742 0.462686
0.8743 0.457022
0.8744 0.451379
0.8745 0.445752
0.8746 0.440131
0.8747 0.434508
0.8748 0.428873
0.8749 0.423219
0.8750 0.417535
0.8751 0.411831
0.8752 0.406118
0.8753 0.400396
0.8754 0.394666
0.8755 0.388928
0.8756 0.383180
0.8757 0.377424
0.8758 0.371659
0.8759 0.365885
0.8760 0.360102
0.8761 0.354310
0.8762 0.348508
0.8763 0.342697
0.8764 0.336877
0.8765 0.331049
0.8766 0.325212
0.8767 0.319365
0.8768 0.313511
0.8769 0.307649
0.8770 0.301776
0.8771 0.295881
0.8772 0.289954
0.8773 0.284002
0.8774 0.278040
0.8775 0.272075
0.8776 0.266120
0.8777 0.260185
0.8778 0.254278
0.8779 0.248414
0.8780 0.242599
0.8781 0.236808
0.8782 0.231018
0.8783 0.225240
0.8784 0.219482
0.8785 0.213755
0.8786 0.208077
0.8787 0.202454
0.8788 0.196895
0.8789 0.191417
0.8790 0.186030
0.8791 0.180698
0.8792 0.175394
0.8793 0.170135
0.8794 0.164926
0.8795 0.159779
0.8796 0.154715
0.8797 0.149742
0.8798 0.144867
0.8799 0.140107
0.8800 0.135480
0.8801 0.130927
0.8802 0.126409
0.8803 0.121950
0.8804 0.117565
0.8805 0.113269
0.8806 0.109090
0.8807 0.105056
0.8808 0.101170
0.8809 0.097451
0.8810 0.093944
0.8811 0.090572
0.8812 0.087274
0.8813 0.084066
0.8814 0.080962
0.8815 0.077966
0.8816 0.075086
0.8817 0.072358
0.8818 0.069771
0.8819 0.067336
0.8820 0.065076
0.8821 0.062971
0.8822 0.060974
0.8823 0.059074
0.8824 0.057275
0.8825 0.055550
0.8826 0.053890
0.8827 0.052288
0.8828 0.050731
0.8829 0.049206
0.8830 0.047702
0.8831 0.046223
0.8832 0.044775
0.8833 0.043359
0.8834 0.041979
0.8835 0.040639
0.8836 0.039337
0.8837 0.038075
0.8838 0.036860
0.8839 0.035690
0.8840 0.034566
0.8841 0.033489
0.8842 0.032458
0.8843 0.031464
0.8844 0.030500
0.8845 0.029566
0.8846 0.028654
0.8847 0.027758
0.8848 0.026873
0.8849 0.025995
0.8850 0.025118
0.8851 0.024241
0.8852 0.023369
0.8853 0.022504
0.8854 0.021650
0.8855 0.020809
0.8856 0.019985
0.8857 0.019180
0.8858 0.018396
0.8859 0.017636
0.8860 0.016906
0.8861 0.016193
0.8862 0.015488
0.8863 0.014796
0.8864 0.014120
0.8865 0.013461
0.8866 0.012823
0.8867 0.012212
0.8868 0.011629
0.8869 0.011076
0.8870 0.010556
0.8871 0.010059
0.8872 0.009569
0.8873 0.009089
0.8874 0.008627
0.8875 0.008186
0.8876 0.007769
0.8877 0.007379
0.8878 0.007027
0.8879 0.006713
0.8880 0.006440
0.8881 0.006200
0.8882 0.005985
0.8883 0.005786
0.8884 0.005602
0.8885 0.005431
0.8886 0.005269
0.8887 0.005113
0.8888 0.004960
0.8889 0.004807
0.8890 0.004653
0.8891 0.004502
0.8892 0.004359
0.8893 0.004223
0.8894 0.004092
0.8895 0.003962
0.8896 0.003832
0.8897 0.003698
0.8898 0.003557
0.8899 0.003408
0.8900 0.003248
0.8901 0.003062
0.8902 0.002849
0.8903 0.002617
0.8904 0.002374
0.8905 0.002129
# -------------------
# H08_AHI Band Band 5
# -------------------
1.5597 0.002039
1.5598 0.002080
1.5599 0.002123
1.5600 0.002168
1.5601 0.002214
1.5602 0.002263
1.5603 0.002312
1.5604 0.002363
1.5605 0.002414
1.5606 0.002467
1.5607 0.002522
1.5608 0.002576
1.5609 0.002630
1.5610 0.002684
1.5611 0.002738
1.5612 0.002792
1.5613 0.002846
1.5614 0.002901
1.5615 0.002955
1.5616 0.003010
1.5617 0.003066
1.5618 0.003120
1.5619 0.003175
1.5620 0.003229
1.5621 0.003280
1.5622 0.003331
1.5623 0.003382
1.5624 0.003432
1.5625 0.003483
1.5626 0.003535
1.5627 0.003586
1.5628 0.003642
1.5629 0.003701
1.5630 0.003760
1.5631 0.003830
1.5632 0.003900
1.5633 0.003975
1.5634 0.004054
1.5635 0.004135
1.5636 0.004220
1.5637 0.004306
1.5638 0.004392
1.5639 0.004480
1.5640 0.004567
1.5641 0.004654
1.5642 0.004742
1.5643 0.004832
1.5644 0.004922
1.5645 0.005014
1.5646 0.005108
1.5647 0.005203
1.5648 0.005305
1.5649 0.005407
1.5650 0.005515
1.5651 0.005627
1.5652 0.005740
1.5653 0.005862
1.5654 0.005985
1.5655 0.006113
1.5656 0.006244
1.5657 0.006376
1.5658 0.006515
1.5659 0.006654
1.5660 0.006801
1.5661 0.006950
1.5662 0.007102
1.5663 0.007262
1.5664 0.007422
1.5665 0.007590
1.5666 0.007758
1.5667 0.007930
1.5668 0.008108
1.5669 0.008286
1.5670 0.008470
1.5671 0.008655
1.5672 0.008843
1.5673 0.009035
1.5674 0.009227
1.5675 0.009429
1.5676 0.009630
1.5677 0.009838
1.5678 0.010051
1.5679 0.010266
1.5680 0.010493
1.5681 0.010719
1.5682 0.010955
1.5683 0.011195
1.5684 0.011438
1.5685 0.011693
1.5686 0.011949
1.5687 0.012218
1.5688 0.012491
1.5689 0.012770
1.5690 0.013065
1.5691 0.013361
1.5692 0.013676
1.5693 0.013996
1.5694 0.014323
1.5695 0.014665
1.5696 0.015007
1.5697 0.015372
1.5698 0.015740
1.5699 0.016117
1.5700 0.016508
1.5701 0.016898
1.5702 0.017315
1.5703 0.017732
1.5704 0.018166
1.5705 0.018616
1.5706 0.019067
1.5707 0.019545
1.5708 0.020022
1.5709 0.020513
1.5710 0.021016
1.5711 0.021521
1.5712 0.022053
1.5713 0.022584
1.5714 0.023137
1.5715 0.023705
1.5716 0.024278
1.5717 0.024882
1.5718 0.025486
1.5719 0.026121
1.5720 0.026772
1.5721 0.027432
1.5722 0.028134
1.5723 0.028835
1.5724 0.029579
1.5725 0.030338
1.5726 0.031109
1.5727 0.031912
1.5728 0.032714
1.5729 0.033567
1.5730 0.034432
1.5731 0.035322
1.5732 0.036265
1.5733 0.037207
1.5734 0.038215
1.5735 0.039237
1.5736 0.040271
1.5737 0.041330
1.5738 0.042389
1.5739 0.043468
1.5740 0.044549
1.5741 0.045635
1.5742 0.046731
1.5743 0.047826
1.5744 0.048948
1.5745 0.050072
1.5746 0.051223
1.5747 0.052405
1.5748 0.053587
1.5749 0.054849
1.5750 0.056113
1.5751 0.057428
1.5752 0.058796
1.5753 0.060165
1.5754 0.061618
1.5755 0.063072
1.5756 0.064559
1.5757 0.066078
1.5758 0.067600
1.5759 0.069196
1.5760 0.070792
1.5761 0.072447
1.5762 0.074147
1.5763 0.075853
1.5764 0.077628
1.5765 0.079402
1.5766 0.081209
1.5767 0.083039
1.5768 0.084873
1.5769 0.086743
1.5770 0.088613
1.5771 0.090503
1.5772 0.092404
1.5773 0.094310
1.5774 0.096249
1.5775 0.098188
1.5776 0.100163
1.5777 0.102157
1.5778 0.104159
1.5779 0.106207
1.5780 0.108254
1.5781 0.110324
1.5782 0.112405
1.5783 0.114497
1.5784 0.116647
1.5785 0.118796
1.5786 0.120998
1.5787 0.123225
1.5788 0.125476
1.5789 0.127828
1.5790 0.130180
1.5791 0.132657
1.5792 0.135190
1.5793 0.137747
1.5794 0.140402
1.5795 0.143057
1.5796 0.145787
1.5797 0.148547
1.5798 0.151327
1.5799 0.154178
1.5800 0.157029
1.5801 0.159937
1.5802 0.162868
1.5803 0.165815
1.5804 0.168820
1.5805 0.171825
1.5806 0.174890
1.5807 0.177978
1.5808 0.181075
1.5809 0.184199
1.5810 0.187323
1.5811 0.190485
1.5812 0.193660
1.5813 0.196845
1.5814 0.200067
1.5815 0.203288
1.5816 0.206540
1.5817 0.209803
1.5818 0.213071
1.5819 0.216355
1.5820 0.219639
1.5821 0.222939
1.5822 0.226247
1.5823 0.229560
1.5824 0.232896
1.5825 0.236232
1.5826 0.239588
1.5827 0.242952
1.5828 0.246320
1.5829 0.249706
1.5830 0.253091
1.5831 0.256489
1.5832 0.259893
1.5833 0.263303
1.5834 0.266735
1.5835 0.270168
1.5836 0.273620
1.5837 0.277083
1.5838 0.280555
1.5839 0.284072
1.5840 0.287589
1.5841 0.291144
1.5842 0.294717
1.5843 0.298298
1.5844 0.301925
1.5845 0.305552
1.5846 0.309202
1.5847 0.312864
1.5848 0.316530
1.5849 0.320224
1.5850 0.323917
1.5851 0.327627
1.5852 0.331345
1.5853 0.335070
1.5854 0.338843
1.5855 0.342615
1.5856 0.346416
1.5857 0.350237
1.5858 0.354065
1.5859 0.357969
1.5860 0.361872
1.5861 0.365834
1.5862 0.369840
1.5863 0.373850
1.5864 0.377938
1.5865 0.382026
1.5866 0.386128
1.5867 0.390241
1.5868 0.394353
1.5869 0.398465
1.5870 0.402577
1.5871 0.406686
1.5872 0.410794
1.5873 0.414901
1.5874 0.419024
1.5875 0.423146
1.5876 0.427266
1.5877 0.431382
1.5878 0.435498
1.5879 0.439604
1.5880 0.443708
1.5881 0.447807
1.5882 0.451898
1.5883 0.455988
1.5884 0.460073
1.5885 0.464158
1.5886 0.468235
1.5887 0.472300
1.5888 0.476365
1.5889 0.480407
1.5890 0.484445
1.5891 0.488472
1.5892 0.492480
1.5893 0.496488
1.5894 0.500486
1.5895 0.504481
1.5896 0.508488
1.5897 0.512527
1.5898 0.516565
1.5899 0.520652
1.5900 0.524756
1.5901 0.528879
1.5902 0.533067
1.5903 0.537255
1.5904 0.541472
1.5905 0.545702
1.5906 0.549939
1.5907 0.554214
1.5908 0.558490
1.5909 0.562783
1.5910 0.567086
1.5911 0.571391
1.5912 0.575716
1.5913 0.580041
1.5914 0.584386
1.5915 0.588748
1.5916 0.593112
1.5917 0.597542
1.5918 0.601972
1.5919 0.606445
1.5920 0.610962
1.5921 0.615479
1.5922 0.620139
1.5923 0.624804
1.5924 0.629485
1.5925 0.634187
1.5926 0.638889
1.5927 0.643583
1.5928 0.648277
1.5929 0.652955
1.5930 0.657604
1.5931 0.662254
1.5932 0.666894
1.5933 0.671532
1.5934 0.676153
1.5935 0.680729
1.5936 0.685306
1.5937 0.689801
1.5938 0.694268
1.5939 0.698699
1.5940 0.702990
1.5941 0.707282
1.5942 0.711462
1.5943 0.715586
1.5944 0.719695
1.5945 0.723705
1.5946 0.727714
1.5947 0.731666
1.5948 0.735577
1.5949 0.739484
1.5950 0.743311
1.5951 0.747138
1.5952 0.750925
1.5953 0.754671
1.5954 0.758418
1.5955 0.762085
1.5956 0.765747
1.5957 0.769381
1.5958 0.772972
1.5959 0.776563
1.5960 0.780171
1.5961 0.783782
1.5962 0.787385
1.5963 0.790973
1.5964 0.794561
1.5965 0.798017
1.5966 0.801432
1.5967 0.804811
1.5968 0.808054
1.5969 0.811297
1.5970 0.814350
1.5971 0.817306
1.5972 0.820235
1.5973 0.822953
1.5974 0.825671
1.5975 0.828266
1.5976 0.830763
1.5977 0.833259
1.5978 0.835552
1.5979 0.837845
1.5980 0.840047
1.5981 0.842140
1.5982 0.844233
1.5983 0.846144
1.5984 0.848036
1.5985 0.849848
1.5986 0.851511
1.5987 0.853174
1.5988 0.854665
1.5989 0.856111
1.5990 0.857494
1.5991 0.858670
1.5992 0.859847
1.5993 0.860920
1.5994 0.861944
1.5995 0.862956
1.5996 0.863878
1.5997 0.864800
1.5998 0.865714
1.5999 0.866623
1.6000 0.867531
1.6001 0.868610
1.6002 0.869688
1.6003 0.870739
1.6004 0.871754
1.6005 0.872769
1.6006 0.873640
1.6007 0.874493
1.6008 0.875199
1.6009 0.875589
1.6010 0.875979
1.6011 0.876158
1.6012 0.876269
1.6013 0.876375
1.6014 0.876462
1.6015 0.876549
1.6016 0.876631
1.6017 0.876708
1.6018 0.876783
1.6019 0.876812
1.6020 0.876841
1.6021 0.876575
1.6022 0.876008
1.6023 0.875440
1.6024 0.874543
1.6025 0.873620
1.6026 0.872559
1.6027 0.871250
1.6028 0.869942
1.6029 0.868784
1.6030 0.867666
1.6031 0.866546
1.6032 0.865421
1.6033 0.864296
1.6034 0.863171
1.6035 0.862045
1.6036 0.860924
1.6037 0.859847
1.6038 0.858771
1.6039 0.857806
1.6040 0.856948
1.6041 0.856090
1.6042 0.855280
1.6043 0.854473
1.6044 0.853717
1.6045 0.853052
1.6046 0.852387
1.6047 0.851907
1.6048 0.851477
1.6049 0.851137
1.6050 0.851131
1.6051 0.851125
1.6052 0.851194
1.6053 0.851306
1.6054 0.851420
1.6055 0.851564
1.6056 0.851707
1.6057 0.851865
1.6058 0.852039
1.6059 0.852213
1.6060 0.852524
1.6061 0.852850
1.6062 0.853281
1.6063 0.853929
1.6064 0.854578
1.6065 0.855485
1.6066 0.856483
1.6067 0.857503
1.6068 0.858640
1.6069 0.859778
1.6070 0.860978
1.6071 0.862224
1.6072 0.863470
1.6073 0.864917
1.6074 0.866364
1.6075 0.867906
1.6076 0.869584
1.6077 0.871262
1.6078 0.872998
1.6079 0.874746
1.6080 0.876517
1.6081 0.878361
1.6082 0.880205
1.6083 0.882124
1.6084 0.884082
1.6085 0.886049
1.6086 0.888130
1.6087 0.890210
1.6088 0.892309
1.6089 0.894427
1.6090 0.896545
1.6091 0.898711
1.6092 0.900882
1.6093 0.903074
1.6094 0.905313
1.6095 0.907553
1.6096 0.909842
1.6097 0.912150
1.6098 0.914464
1.6099 0.916824
1.6100 0.919183
1.6101 0.921593
1.6102 0.924048
1.6103 0.926502
1.6104 0.929004
1.6105 0.931509
1.6106 0.934026
1.6107 0.936563
1.6108 0.939101
1.6109 0.941610
1.6110 0.944109
1.6111 0.946610
1.6112 0.949119
1.6113 0.951629
1.6114 0.954117
1.6115 0.956588
1.6116 0.959060
1.6117 0.961478
1.6118 0.963894
1.6119 0.966269
1.6120 0.968571
1.6121 0.970874
1.6122 0.973157
1.6123 0.975435
1.6124 0.977686
1.6125 0.979802
1.6126 0.981919
1.6127 0.983903
1.6128 0.985787
1.6129 0.987671
1.6130 0.989205
1.6131 0.990728
1.6132 0.992194
1.6133 0.993561
1.6134 0.994927
1.6135 0.996131
1.6136 0.997284
1.6137 0.998355
1.6138 0.998992
1.6139 0.999629
1.6140 0.999871
1.6141 0.999796
1.6142 0.999721
1.6143 0.999417
1.6144 0.999101
1.6145 0.998679
1.6146 0.998054
1.6147 0.997428
1.6148 0.996721
1.6149 0.995983
1.6150 0.995192
1.6151 0.994037
1.6152 0.992881
1.6153 0.991508
1.6154 0.989932
1.6155 0.988357
1.6156 0.986349
1.6157 0.984299
1.6158 0.982223
1.6159 0.980084
1.6160 0.977945
1.6161 0.975629
1.6162 0.973234
1.6163 0.970817
1.6164 0.968139
1.6165 0.965461
1.6166 0.962663
1.6167 0.959727
1.6168 0.956792
1.6169 0.953795
1.6170 0.950788
1.6171 0.947731
1.6172 0.944514
1.6173 0.941297
1.6174 0.938003
1.6175 0.934661
1.6176 0.931319
1.6177 0.927929
1.6178 0.924540
1.6179 0.921218
1.6180 0.918003
1.6181 0.914787
1.6182 0.911630
1.6183 0.908492
1.6184 0.905364
1.6185 0.902299
1.6186 0.899234
1.6187 0.896213
1.6188 0.893230
1.6189 0.890247
1.6190 0.887415
1.6191 0.884597
1.6192 0.881811
1.6193 0.879102
1.6194 0.876392
1.6195 0.873729
1.6196 0.871090
1.6197 0.868453
1.6198 0.865884
1.6199 0.863314
1.6200 0.860792
1.6201 0.858333
1.6202 0.855874
1.6203 0.853440
1.6204 0.851012
1.6205 0.848574
1.6206 0.846085
1.6207 0.843597
1.6208 0.841014
1.6209 0.838352
1.6210 0.835690
1.6211 0.832639
1.6212 0.829554
1.6213 0.826407
1.6214 0.823108
1.6215 0.819810
1.6216 0.816428
1.6217 0.813003
1.6218 0.809578
1.6219 0.806149
1.6220 0.802720
1.6221 0.799325
1.6222 0.795980
1.6223 0.792636
1.6224 0.789271
1.6225 0.785900
1.6226 0.782524
1.6227 0.779111
1.6228 0.775698
1.6229 0.772250
1.6230 0.768768
1.6231 0.765286
1.6232 0.761737
1.6233 0.758178
1.6234 0.754612
1.6235 0.751022
1.6236 0.747433
1.6237 0.743826
1.6238 0.740207
1.6239 0.736588
1.6240 0.732966
1.6241 0.729344
1.6242 0.725720
1.6243 0.722093
1.6244 0.718466
1.6245 0.714840
1.6246 0.711213
1.6247 0.707586
1.6248 0.703968
1.6249 0.700350
1.6250 0.696749
1.6251 0.693173
1.6252 0.689597
1.6253 0.686036
1.6254 0.682479
1.6255 0.678922
1.6256 0.675363
1.6257 0.671803
1.6258 0.668239
1.6259 0.664669
1.6260 0.661099
1.6261 0.657513
1.6262 0.653923
1.6263 0.650330
1.6264 0.646719
1.6265 0.643109
1.6266 0.639482
1.6267 0.635842
1.6268 0.632201
1.6269 0.628524
1.6270 0.624844
1.6271 0.621147
1.6272 0.617401
1.6273 0.613656
1.6274 0.609893
1.6275 0.606119
1.6276 0.602345
1.6277 0.598551
1.6278 0.594756
1.6279 0.590959
1.6280 0.587156
1.6281 0.583353
1.6282 0.579536
1.6283 0.575712
1.6284 0.571888
1.6285 0.568063
1.6286 0.564237
1.6287 0.560414
1.6288 0.556593
1.6289 0.552773
1.6290 0.548976
1.6291 0.545188
1.6292 0.541402
1.6293 0.537644
1.6294 0.533887
1.6295 0.530122
1.6296 0.526347
1.6297 0.522572
1.6298 0.518777
1.6299 0.514976
1.6300 0.511170
1.6301 0.507315
1.6302 0.503460
1.6303 0.499592
1.6304 0.495709
1.6305 0.491825
1.6306 0.487915
1.6307 0.483997
1.6308 0.480075
1.6309 0.476116
1.6310 0.472156
1.6311 0.468169
1.6312 0.464146
1.6313 0.460124
1.6314 0.456068
1.6315 0.452002
1.6316 0.447940
1.6317 0.443898
1.6318 0.439855
1.6319 0.435835
1.6320 0.431838
1.6321 0.427842
1.6322 0.423885
1.6323 0.419939
1.6324 0.415995
1.6325 0.412070
1.6326 0.408146
1.6327 0.404231
1.6328 0.400327
1.6329 0.396423
1.6330 0.392520
1.6331 0.388616
1.6332 0.384712
1.6333 0.380804
1.6334 0.376895
1.6335 0.372992
1.6336 0.369095
1.6337 0.365197
1.6338 0.361324
1.6339 0.357457
1.6340 0.353592
1.6341 0.349740
1.6342 0.345888
1.6343 0.342042
1.6344 0.338203
1.6345 0.334364
1.6346 0.330560
1.6347 0.326766
1.6348 0.322983
1.6349 0.319290
1.6350 0.315598
1.6351 0.311947
1.6352 0.308350
1.6353 0.304754
1.6354 0.301215
1.6355 0.297693
1.6356 0.294176
1.6357 0.290704
1.6358 0.287231
1.6359 0.283782
1.6360 0.280365
1.6361 0.276949
1.6362 0.273571
1.6363 0.270208
1.6364 0.266848
1.6365 0.263535
1.6366 0.260222
1.6367 0.256922
1.6368 0.253645
1.6369 0.250367
1.6370 0.247116
1.6371 0.243876
1.6372 0.240636
1.6373 0.237439
1.6374 0.234241
1.6375 0.231056
1.6376 0.227894
1.6377 0.224733
1.6378 0.221598
1.6379 0.218476
1.6380 0.215354
1.6381 0.212255
1.6382 0.209156
1.6383 0.206073
1.6384 0.203028
1.6385 0.199983
1.6386 0.196976
1.6387 0.193992
1.6388 0.191008
1.6389 0.188140
1.6390 0.185281
1.6391 0.182448
1.6392 0.179695
1.6393 0.176942
1.6394 0.174247
1.6395 0.171599
1.6396 0.168950
1.6397 0.166376
1.6398 0.163812
1.6399 0.161272
1.6400 0.158838
1.6401 0.156404
1.6402 0.154019
1.6403 0.151685
1.6404 0.149351
1.6405 0.147069
1.6406 0.144801
1.6407 0.142538
1.6408 0.140322
1.6409 0.138105
1.6410 0.135889
1.6411 0.133674
1.6412 0.131458
1.6413 0.129266
1.6414 0.127082
1.6415 0.124900
1.6416 0.122776
1.6417 0.120653
1.6418 0.118549
1.6419 0.116485
1.6420 0.114421
1.6421 0.112393
1.6422 0.110387
1.6423 0.108381
1.6424 0.106454
1.6425 0.104531
1.6426 0.102631
1.6427 0.100796
1.6428 0.098961
1.6429 0.097191
1.6430 0.095474
1.6431 0.093758
1.6432 0.092153
1.6433 0.090569
1.6434 0.088996
1.6435 0.087481
1.6436 0.085966
1.6437 0.084484
1.6438 0.083044
1.6439 0.081603
1.6440 0.080195
1.6441 0.078798
1.6442 0.077403
1.6443 0.076053
1.6444 0.074703
1.6445 0.073371
1.6446 0.072075
1.6447 0.070780
1.6448 0.069518
1.6449 0.068276
1.6450 0.067033
1.6451 0.065842
1.6452 0.064654
1.6453 0.063474
1.6454 0.062324
1.6455 0.061173
1.6456 0.060049
1.6457 0.058951
1.6458 0.057853
1.6459 0.056807
1.6460 0.055775
1.6461 0.054748
1.6462 0.053780
1.6463 0.052813
1.6464 0.051861
1.6465 0.050935
1.6466 0.050009
1.6467 0.049106
1.6468 0.048215
1.6469 0.047324
1.6470 0.046457
1.6471 0.045592
1.6472 0.044733
1.6473 0.043894
1.6474 0.043056
1.6475 0.042233
1.6476 0.041424
1.6477 0.040614
1.6478 0.039842
1.6479 0.039077
1.6480 0.038317
1.6481 0.037591
1.6482 0.036864
1.6483 0.036152
1.6484 0.035463
1.6485 0.034774
1.6486 0.034106
1.6487 0.033449
1.6488 0.032792
1.6489 0.032180
1.6490 0.031571
1.6491 0.030972
1.6492 0.030404
1.6493 0.029836
1.6494 0.029286
1.6495 0.028753
1.6496 0.028220
1.6497 0.027705
1.6498 0.027195
1.6499 0.026686
1.6500 0.026203
1.6501 0.025719
1.6502 0.025242
1.6503 0.024779
1.6504 0.024317
1.6505 0.023868
1.6506 0.023428
1.6507 0.022989
1.6508 0.022564
1.6509 0.022141
1.6510 0.021721
1.6511 0.021316
1.6512 0.020911
1.6513 0.020514
1.6514 0.020127
1.6515 0.019740
1.6516 0.019365
1.6517 0.018996
1.6518 0.018626
1.6519 0.018276
1.6520 0.017926
1.6521 0.017581
1.6522 0.017248
1.6523 0.016915
1.6524 0.016591
1.6525 0.016276
1.6526 0.015961
1.6527 0.015661
1.6528 0.015363
1.6529 0.015068
1.6530 0.014790
1.6531 0.014511
1.6532 0.014239
1.6533 0.013978
1.6534 0.013717
1.6535 0.013466
1.6536 0.013221
1.6537 0.012976
1.6538 0.012743
1.6539 0.012510
1.6540 0.012280
1.6541 0.012059
1.6542 0.011838
1.6543 0.011621
1.6544 0.011410
1.6545 0.011198
1.6546 0.010998
1.6547 0.010804
1.6548 0.010609
1.6549 0.010432
1.6550 0.010255
1.6551 0.010084
1.6552 0.009932
1.6553 0.009780
1.6554 0.009631
1.6555 0.009487
1.6556 0.009342
1.6557 0.009201
1.6558 0.009060
1.6559 0.008920
1.6560 0.008774
1.6561 0.008628
1.6562 0.008481
1.6563 0.008332
1.6564 0.008183
1.6565 0.008036
1.6566 0.007889
1.6567 0.007743
1.6568 0.007601
1.6569 0.007462
1.6570 0.007322
1.6571 0.007190
1.6572 0.007057
1.6573 0.006925
1.6574 0.006797
1.6575 0.006668
1.6576 0.006543
1.6577 0.006421
1.6578 0.006299
1.6579 0.006185
1.6580 0.006074
1.6581 0.005962
1.6582 0.005859
1.6583 0.005756
1.6584 0.005654
1.6585 0.005557
1.6586 0.005460
1.6587 0.005367
1.6588 0.005278
1.6589 0.005189
1.6590 0.005107
1.6591 0.005027
1.6592 0.004947
1.6593 0.004875
1.6594 0.004802
1.6595 0.004731
1.6596 0.004663
1.6597 0.004596
1.6598 0.004530
1.6599 0.004467
1.6600 0.004404
1.6601 0.004346
1.6602 0.004289
1.6603 0.004232
1.6604 0.004179
1.6605 0.004125
1.6606 0.004072
1.6607 0.004020
1.6608 0.003968
1.6609 0.003915
1.6610 0.003860
1.6611 0.003805
1.6612 0.003749
1.6613 0.003692
1.6614 0.003635
1.6615 0.003579
1.6616 0.003523
1.6617 0.003467
1.6618 0.003411
1.6619 0.003356
1.6620 0.003302
1.6621 0.003249
1.6622 0.003196
1.6623 0.003144
1.6624 0.003093
1.6625 0.003042
1.6626 0.002992
1.6627 0.002943
1.6628 0.002894
1.6629 0.002846
1.6630 0.002799
1.6631 0.002752
1.6632 0.002707
1.6633 0.002661
1.6634 0.002617
1.6635 0.002573
1.6636 0.002529
1.6637 0.002487
1.6638 0.002446
1.6639 0.002404
1.6640 0.002363
1.6641 0.002323
1.6642 0.002282
1.6643 0.002241
1.6644 0.002200
1.6645 0.002161
1.6646 0.002124
1.6647 0.002086
1.6648 0.002053
1.6649 0.002021
# -------------------
# H08_AHI Band Band 6
# -------------------
2.2037 0.002023
2.2038 0.002068
2.2039 0.002113
2.2040 0.002158
2.2041 0.002203
2.2042 0.002227
2.2043 0.002252
2.2044 0.002276
2.2045 0.002300
2.2046 0.002326
2.2047 0.002360
2.2048 0.002393
2.2049 0.002427
2.2050 0.002461
2.2051 0.002509
2.2052 0.002595
2.2053 0.002680
2.2054 0.002766
2.2055 0.002852
2.2056 0.002942
2.2057 0.003038
2.2058 0.003135
2.2059 0.003231
2.2060 0.003327
2.2061 0.003404
2.2062 0.003465
2.2063 0.003527
2.2064 0.003588
2.2065 0.003649
2.2066 0.003711
2.2067 0.003772
2.2068 0.003834
2.2069 0.003896
2.2070 0.003957
2.2071 0.004027
2.2072 0.004098
2.2073 0.004169
2.2074 0.004240
2.2075 0.004311
2.2076 0.004394
2.2077 0.004477
2.2078 0.004560
2.2079 0.004642
2.2080 0.004727
2.2081 0.004832
2.2082 0.004937
2.2083 0.005042
2.2084 0.005147
2.2085 0.005256
2.2086 0.005383
2.2087 0.005509
2.2088 0.005636
2.2089 0.005762
2.2090 0.005899
2.2091 0.006058
2.2092 0.006217
2.2093 0.006375
2.2094 0.006534
2.2095 0.006703
2.2096 0.006884
2.2097 0.007065
2.2098 0.007246
2.2099 0.007427
2.2100 0.007602
2.2101 0.007772
2.2102 0.007942
2.2103 0.008112
2.2104 0.008282
2.2105 0.008457
2.2106 0.008635
2.2107 0.008812
2.2108 0.008990
2.2109 0.009167
2.2110 0.009371
2.2111 0.009583
2.2112 0.009796
2.2113 0.010008
2.2114 0.010220
2.2115 0.010469
2.2116 0.010722
2.2117 0.010976
2.2118 0.011229
2.2119 0.011483
2.2120 0.011815
2.2121 0.012148
2.2122 0.012480
2.2123 0.012812
2.2124 0.013154
2.2125 0.013572
2.2126 0.013989
2.2127 0.014407
2.2128 0.014825
2.2129 0.015254
2.2130 0.015725
2.2131 0.016196
2.2132 0.016667
2.2133 0.017138
2.2134 0.017630
2.2135 0.018167
2.2136 0.018704
2.2137 0.019241
2.2138 0.019778
2.2139 0.020346
2.2140 0.020958
2.2141 0.021570
2.2142 0.022182
2.2143 0.022794
2.2144 0.023446
2.2145 0.024136
2.2146 0.024827
2.2147 0.025517
2.2148 0.026207
2.2149 0.026945
2.2150 0.027714
2.2151 0.028483
2.2152 0.029252
2.2153 0.030020
2.2154 0.030850
2.2155 0.031707
2.2156 0.032563
2.2157 0.033419
2.2158 0.034276
2.2159 0.035224
2.2160 0.036197
2.2161 0.037171
2.2162 0.038144
2.2163 0.039117
2.2164 0.040211
2.2165 0.041322
2.2166 0.042433
2.2167 0.043544
2.2168 0.044655
2.2169 0.045887
2.2170 0.047124
2.2171 0.048361
2.2172 0.049598
2.2173 0.050841
2.2174 0.052212
2.2175 0.053582
2.2176 0.054952
2.2177 0.056323
2.2178 0.057693
2.2179 0.059061
2.2180 0.060430
2.2181 0.061799
2.2182 0.063167
2.2183 0.064540
2.2184 0.065927
2.2185 0.067314
2.2186 0.068701
2.2187 0.070088
2.2188 0.071526
2.2189 0.073088
2.2190 0.074650
2.2191 0.076211
2.2192 0.077773
2.2193 0.079392
2.2194 0.081109
2.2195 0.082825
2.2196 0.084542
2.2197 0.086259
2.2198 0.088024
2.2199 0.089853
2.2200 0.091681
2.2201 0.093509
2.2202 0.095337
2.2203 0.097228
2.2204 0.099178
2.2205 0.101128
2.2206 0.103079
2.2207 0.105029
2.2208 0.107024
2.2209 0.109051
2.2210 0.111077
2.2211 0.113104
2.2212 0.115131
2.2213 0.117198
2.2214 0.119287
2.2215 0.121377
2.2216 0.123466
2.2217 0.125556
2.2218 0.127708
2.2219 0.129887
2.2220 0.132065
2.2221 0.134243
2.2222 0.136421
2.2223 0.138665
2.2224 0.140928
2.2225 0.143191
2.2226 0.145453
2.2227 0.147716
2.2228 0.150033
2.2229 0.152359
2.2230 0.154686
2.2231 0.157013
2.2232 0.159339
2.2233 0.161695
2.2234 0.164055
2.2235 0.166414
2.2236 0.168773
2.2237 0.171133
2.2238 0.173540
2.2239 0.175950
2.2240 0.178360
2.2241 0.180770
2.2242 0.183180
2.2243 0.185695
2.2244 0.188209
2.2245 0.190724
2.2246 0.193238
2.2247 0.195755
2.2248 0.198304
2.2249 0.200853
2.2250 0.203402
2.2251 0.205950
2.2252 0.208500
2.2253 0.211058
2.2254 0.213615
2.2255 0.216173
2.2256 0.218730
2.2257 0.221291
2.2258 0.223872
2.2259 0.226453
2.2260 0.229034
2.2261 0.231615
2.2262 0.234199
2.2263 0.236798
2.2264 0.239397
2.2265 0.241996
2.2266 0.244595
2.2267 0.247224
2.2268 0.249947
2.2269 0.252670
2.2270 0.255393
2.2271 0.258116
2.2272 0.260895
2.2273 0.263811
2.2274 0.266727
2.2275 0.269644
2.2276 0.272560
2.2277 0.275505
2.2278 0.278508
2.2279 0.281511
2.2280 0.284515
2.2281 0.287518
2.2282 0.290532
2.2283 0.293563
2.2284 0.296594
2.2285 0.299625
2.2286 0.302656
2.2287 0.305702
2.2288 0.308771
2.2289 0.311840
2.2290 0.314910
2.2291 0.317979
2.2292 0.321068
2.2293 0.324184
2.2294 0.327301
2.2295 0.330417
2.2296 0.333534
2.2297 0.336632
2.2298 0.339709
2.2299 0.342786
2.2300 0.345863
2.2301 0.348941
2.2302 0.352034
2.2303 0.355146
2.2304 0.358257
2.2305 0.361369
2.2306 0.364480
2.2307 0.367645
2.2308 0.370860
2.2309 0.374076
2.2310 0.377292
2.2311 0.380508
2.2312 0.383720
2.2313 0.386928
2.2314 0.390136
2.2315 0.393344
2.2316 0.396552
2.2317 0.399753
2.2318 0.402947
2.2319 0.406140
2.2320 0.409334
2.2321 0.412528
2.2322 0.415670
2.2323 0.418772
2.2324 0.421875
2.2325 0.424977
2.2326 0.428079
2.2327 0.431175
2.2328 0.434267
2.2329 0.437358
2.2330 0.440449
2.2331 0.443541
2.2332 0.446622
2.2333 0.449698
2.2334 0.452773
2.2335 0.455849
2.2336 0.458924
2.2337 0.462014
2.2338 0.465113
2.2339 0.468211
2.2340 0.471310
2.2341 0.474409
2.2342 0.477494
2.2343 0.480571
2.2344 0.483647
2.2345 0.486724
2.2346 0.489800
2.2347 0.492827
2.2348 0.495823
2.2349 0.498820
2.2350 0.501817
2.2351 0.504814
2.2352 0.507805
2.2353 0.510793
2.2354 0.513782
2.2355 0.516770
2.2356 0.519758
2.2357 0.522805
2.2358 0.525884
2.2359 0.528963
2.2360 0.532042
2.2361 0.535122
2.2362 0.538333
2.2363 0.541618
2.2364 0.544903
2.2365 0.548188
2.2366 0.551473
2.2367 0.554824
2.2368 0.558213
2.2369 0.561602
2.2370 0.564990
2.2371 0.568379
2.2372 0.571847
2.2373 0.575360
2.2374 0.578873
2.2375 0.582387
2.2376 0.585900
2.2377 0.589393
2.2378 0.592875
2.2379 0.596356
2.2380 0.599837
2.2381 0.603319
2.2382 0.606766
2.2383 0.610193
2.2384 0.613620
2.2385 0.617046
2.2386 0.620473
2.2387 0.623885
2.2388 0.627288
2.2389 0.630691
2.2390 0.634094
2.2391 0.637497
2.2392 0.640856
2.2393 0.644186
2.2394 0.647516
2.2395 0.650847
2.2396 0.654177
2.2397 0.657517
2.2398 0.660865
2.2399 0.664212
2.2400 0.667560
2.2401 0.670908
2.2402 0.674322
2.2403 0.677786
2.2404 0.681250
2.2405 0.684714
2.2406 0.688178
2.2407 0.691660
2.2408 0.695157
2.2409 0.698654
2.2410 0.702152
2.2411 0.705649
2.2412 0.709163
2.2413 0.712694
2.2414 0.716225
2.2415 0.719755
2.2416 0.723286
2.2417 0.726790
2.2418 0.730266
2.2419 0.733743
2.2420 0.737219
2.2421 0.740696
2.2422 0.744128
2.2423 0.747510
2.2424 0.750893
2.2425 0.754276
2.2426 0.757659
2.2427 0.760964
2.2428 0.764173
2.2429 0.767383
2.2430 0.770592
2.2431 0.773801
2.2432 0.776999
2.2433 0.780179
2.2434 0.783360
2.2435 0.786540
2.2436 0.789721
2.2437 0.792897
2.2438 0.796065
2.2439 0.799234
2.2440 0.802403
2.2441 0.805571
2.2442 0.808683
2.2443 0.811689
2.2444 0.814694
2.2445 0.817700
2.2446 0.820705
2.2447 0.823697
2.2448 0.826656
2.2449 0.829615
2.2450 0.832575
2.2451 0.835534
2.2452 0.838489
2.2453 0.841433
2.2454 0.844377
2.2455 0.847321
2.2456 0.850264
2.2457 0.853185
2.2458 0.856029
2.2459 0.858872
2.2460 0.861716
2.2461 0.864560
2.2462 0.867404
2.2463 0.870253
2.2464 0.873101
2.2465 0.875950
2.2466 0.878799
2.2467 0.881673
2.2468 0.884707
2.2469 0.887742
2.2470 0.890776
2.2471 0.893810
2.2472 0.896821
2.2473 0.899590
2.2474 0.902359
2.2475 0.905129
2.2476 0.907898
2.2477 0.910656
2.2478 0.913132
2.2479 0.915607
2.2480 0.918083
2.2481 0.920559
2.2482 0.923035
2.2483 0.925475
2.2484 0.927915
2.2485 0.930356
2.2486 0.932796
2.2487 0.935236
2.2488 0.937235
2.2489 0.939202
2.2490 0.941168
2.2491 0.943134
2.2492 0.945100
2.2493 0.946670
2.2494 0.948182
2.2495 0.949694
2.2496 0.951206
2.2497 0.952718
2.2498 0.954157
2.2499 0.955580
2.2500 0.957003
2.2501 0.958426
2.2502 0.959848
2.2503 0.961093
2.2504 0.962278
2.2505 0.963462
2.2506 0.964647
2.2507 0.965832
2.2508 0.966645
2.2509 0.967287
2.2510 0.967929
2.2511 0.968572
2.2512 0.969214
2.2513 0.969722
2.2514 0.970148
2.2515 0.970574
2.2516 0.971000
2.2517 0.971426
2.2518 0.971938
2.2519 0.972521
2.2520 0.973104
2.2521 0.973687
2.2522 0.974270
2.2523 0.975024
2.2524 0.975966
2.2525 0.976907
2.2526 0.977848
2.2527 0.978790
2.2528 0.979744
2.2529 0.980718
2.2530 0.981692
2.2531 0.982666
2.2532 0.983640
2.2533 0.984570
2.2534 0.985408
2.2535 0.986245
2.2536 0.987083
2.2537 0.987921
2.2538 0.988770
2.2539 0.989652
2.2540 0.990534
2.2541 0.991416
2.2542 0.992298
2.2543 0.993156
2.2544 0.993895
2.2545 0.994635
2.2546 0.995375
2.2547 0.996115
2.2548 0.996828
2.2549 0.997260
2.2550 0.997692
2.2551 0.998124
2.2552 0.998556
2.2553 0.998987
2.2554 0.999168
2.2555 0.999349
2.2556 0.999530
2.2557 0.999711
2.2558 0.999892
2.2559 0.999717
2.2560 0.999507
2.2561 0.999297
2.2562 0.999087
2.2563 0.998877
2.2564 0.998190
2.2565 0.997400
2.2566 0.996611
2.2567 0.995821
2.2568 0.995031
2.2569 0.993845
2.2570 0.992513
2.2571 0.991181
2.2572 0.989849
2.2573 0.988516
2.2574 0.986751
2.2575 0.984738
2.2576 0.982725
2.2577 0.980713
2.2578 0.978700
2.2579 0.976690
2.2580 0.974682
2.2581 0.972675
2.2582 0.970667
2.2583 0.968660
2.2584 0.966650
2.2585 0.964639
2.2586 0.962627
2.2587 0.960616
2.2588 0.958604
2.2589 0.956615
2.2590 0.954671
2.2591 0.952727
2.2592 0.950782
2.2593 0.948838
2.2594 0.946884
2.2595 0.944896
2.2596 0.942909
2.2597 0.940922
2.2598 0.938934
2.2599 0.936962
2.2600 0.935090
2.2601 0.933218
2.2602 0.931347
2.2603 0.929475
2.2604 0.927604
2.2605 0.925761
2.2606 0.923919
2.2607 0.922076
2.2608 0.920234
2.2609 0.918391
2.2610 0.916699
2.2611 0.915022
2.2612 0.913345
2.2613 0.911668
2.2614 0.909990
2.2615 0.908402
2.2616 0.906836
2.2617 0.905270
2.2618 0.903704
2.2619 0.902137
2.2620 0.900606
2.2621 0.899092
2.2622 0.897577
2.2623 0.896062
2.2624 0.894548
2.2625 0.893026
2.2626 0.891499
2.2627 0.889972
2.2628 0.888445
2.2629 0.886918
2.2630 0.885323
2.2631 0.883642
2.2632 0.881961
2.2633 0.880279
2.2634 0.878598
2.2635 0.876879
2.2636 0.875080
2.2637 0.873282
2.2638 0.871483
2.2639 0.869684
2.2640 0.867881
2.2641 0.866061
2.2642 0.864242
2.2643 0.862422
2.2644 0.860602
2.2645 0.858773
2.2646 0.856816
2.2647 0.854858
2.2648 0.852901
2.2649 0.850944
2.2650 0.848987
2.2651 0.846947
2.2652 0.844903
2.2653 0.842859
2.2654 0.840814
2.2655 0.838770
2.2656 0.836743
2.2657 0.834720
2.2658 0.832696
2.2659 0.830673
2.2660 0.828650
2.2661 0.826583
2.2662 0.824495
2.2663 0.822407
2.2664 0.820319
2.2665 0.818230
2.2666 0.816123
2.2667 0.814000
2.2668 0.811876
2.2669 0.809753
2.2670 0.807629
2.2671 0.805507
2.2672 0.803388
2.2673 0.801269
2.2674 0.799150
2.2675 0.797031
2.2676 0.794902
2.2677 0.792743
2.2678 0.790584
2.2679 0.788425
2.2680 0.786267
2.2681 0.784098
2.2682 0.781859
2.2683 0.779619
2.2684 0.777379
2.2685 0.775139
2.2686 0.772900
2.2687 0.770465
2.2688 0.768026
2.2689 0.765586
2.2690 0.763146
2.2691 0.760707
2.2692 0.758231
2.2693 0.755748
2.2694 0.753265
2.2695 0.750782
2.2696 0.748299
2.2697 0.745764
2.2698 0.743204
2.2699 0.740644
2.2700 0.738084
2.2701 0.735523
2.2702 0.733000
2.2703 0.730511
2.2704 0.728021
2.2705 0.725531
2.2706 0.723042
2.2707 0.720552
2.2708 0.718063
2.2709 0.715574
2.2710 0.713085
2.2711 0.710596
2.2712 0.708085
2.2713 0.705493
2.2714 0.702902
2.2715 0.700310
2.2716 0.697718
2.2717 0.695130
2.2718 0.692594
2.2719 0.690059
2.2720 0.687524
2.2721 0.684988
2.2722 0.682453
2.2723 0.679946
2.2724 0.677442
2.2725 0.674939
2.2726 0.672436
2.2727 0.669932
2.2728 0.667401
2.2729 0.664859
2.2730 0.662317
2.2731 0.659775
2.2732 0.657233
2.2733 0.654708
2.2734 0.652195
2.2735 0.649682
2.2736 0.647169
2.2737 0.644656
2.2738 0.642154
2.2739 0.639669
2.2740 0.637184
2.2741 0.634699
2.2742 0.632215
2.2743 0.629713
2.2744 0.627152
2.2745 0.624591
2.2746 0.622031
2.2747 0.619470
2.2748 0.616909
2.2749 0.614358
2.2750 0.611807
2.2751 0.609255
2.2752 0.606704
2.2753 0.604153
2.2754 0.601637
2.2755 0.599126
2.2756 0.596616
2.2757 0.594105
2.2758 0.591595
2.2759 0.588988
2.2760 0.586338
2.2761 0.583689
2.2762 0.581039
2.2763 0.578389
2.2764 0.575677
2.2765 0.572904
2.2766 0.570131
2.2767 0.567359
2.2768 0.564586
2.2769 0.561795
2.2770 0.558968
2.2771 0.556141
2.2772 0.553314
2.2773 0.550487
2.2774 0.547652
2.2775 0.544774
2.2776 0.541897
2.2777 0.539019
2.2778 0.536141
2.2779 0.533263
2.2780 0.530410
2.2781 0.527557
2.2782 0.524704
2.2783 0.521852
2.2784 0.518999
2.2785 0.516180
2.2786 0.513371
2.2787 0.510561
2.2788 0.507752
2.2789 0.504943
2.2790 0.502057
2.2791 0.499115
2.2792 0.496172
2.2793 0.493230
2.2794 0.490287
2.2795 0.487321
2.2796 0.484315
2.2797 0.481309
2.2798 0.478304
2.2799 0.475298
2.2800 0.472285
2.2801 0.469237
2.2802 0.466188
2.2803 0.463140
2.2804 0.460092
2.2805 0.457044
2.2806 0.453967
2.2807 0.450890
2.2808 0.447813
2.2809 0.444735
2.2810 0.441658
2.2811 0.438568
2.2812 0.435474
2.2813 0.432380
2.2814 0.429287
2.2815 0.426193
2.2816 0.423122
2.2817 0.420067
2.2818 0.417012
2.2819 0.413957
2.2820 0.410902
2.2821 0.407881
2.2822 0.404918
2.2823 0.401954
2.2824 0.398991
2.2825 0.396027
2.2826 0.393064
2.2827 0.390099
2.2828 0.387135
2.2829 0.384171
2.2830 0.381207
2.2831 0.378242
2.2832 0.375257
2.2833 0.372271
2.2834 0.369284
2.2835 0.366298
2.2836 0.363311
2.2837 0.360292
2.2838 0.357262
2.2839 0.354232
2.2840 0.351202
2.2841 0.348172
2.2842 0.345145
2.2843 0.342120
2.2844 0.339096
2.2845 0.336072
2.2846 0.333048
2.2847 0.330031
2.2848 0.327033
2.2849 0.324036
2.2850 0.321038
2.2851 0.318040
2.2852 0.315042
2.2853 0.312050
2.2854 0.309057
2.2855 0.306065
2.2856 0.303073
2.2857 0.300080
2.2858 0.297098
2.2859 0.294118
2.2860 0.291138
2.2861 0.288158
2.2862 0.285178
2.2863 0.282204
2.2864 0.279234
2.2865 0.276263
2.2866 0.273293
2.2867 0.270322
2.2868 0.267347
2.2869 0.264364
2.2870 0.261381
2.2871 0.258399
2.2872 0.255416
2.2873 0.252435
2.2874 0.249460
2.2875 0.246486
2.2876 0.243511
2.2877 0.240537
2.2878 0.237563
2.2879 0.234661
2.2880 0.231763
2.2881 0.228866
2.2882 0.225969
2.2883 0.223072
2.2884 0.220214
2.2885 0.217372
2.2886 0.214530
2.2887 0.211689
2.2888 0.208847
2.2889 0.206023
2.2890 0.203219
2.2891 0.200415
2.2892 0.197611
2.2893 0.194806
2.2894 0.192013
2.2895 0.189254
2.2896 0.186495
2.2897 0.183737
2.2898 0.180978
2.2899 0.178220
2.2900 0.175521
2.2901 0.172824
2.2902 0.170126
2.2903 0.167428
2.2904 0.164731
2.2905 0.162069
2.2906 0.159421
2.2907 0.156772
2.2908 0.154124
2.2909 0.151476
2.2910 0.148894
2.2911 0.146382
2.2912 0.143870
2.2913 0.141358
2.2914 0.138846
2.2915 0.136364
2.2916 0.133972
2.2917 0.131580
2.2918 0.129188
2.2919 0.126796
2.2920 0.124404
2.2921 0.122217
2.2922 0.120031
2.2923 0.117846
2.2924 0.115660
2.2925 0.113475
2.2926 0.111400
2.2927 0.109365
2.2928 0.107330
2.2929 0.105295
2.2930 0.103260
2.2931 0.101311
2.2932 0.099457
2.2933 0.097603
2.2934 0.095748
2.2935 0.093894
2.2936 0.092069
2.2937 0.090349
2.2938 0.088630
2.2939 0.086910
2.2940 0.085190
2.2941 0.083471
2.2942 0.081842
2.2943 0.080218
2.2944 0.078594
2.2945 0.076970
2.2946 0.075346
2.2947 0.073793
2.2948 0.072272
2.2949 0.070751
2.2950 0.069229
2.2951 0.067708
2.2952 0.066250
2.2953 0.064876
2.2954 0.063503
2.2955 0.062129
2.2956 0.060755
2.2957 0.059405
2.2958 0.058181
2.2959 0.056957
2.2960 0.055732
2.2961 0.054508
2.2962 0.053284
2.2963 0.052206
2.2964 0.051147
2.2965 0.050088
2.2966 0.049029
2.2967 0.047970
2.2968 0.046975
2.2969 0.046021
2.2970 0.045067
2.2971 0.044114
2.2972 0.043160
2.2973 0.042234
2.2974 0.041364
2.2975 0.040494
2.2976 0.039624
2.2977 0.038755
2.2978 0.037889
2.2979 0.037100
2.2980 0.036310
2.2981 0.035521
2.2982 0.034731
2.2983 0.033942
2.2984 0.033206
2.2985 0.032485
2.2986 0.031764
2.2987 0.031043
2.2988 0.030322
2.2989 0.029648
2.2990 0.029022
2.2991 0.028396
2.2992 0.027771
2.2993 0.027145
2.2994 0.026535
2.2995 0.025986
2.2996 0.025438
2.2997 0.024890
2.2998 0.024341
2.2999 0.023793
2.3000 0.023314
2.3001 0.022842
2.3002 0.022370
2.3003 0.021897
2.3004 0.021425
2.3005 0.020988
2.3006 0.020573
2.3007 0.020157
2.3008 0.019741
2.3009 0.019325
2.3010 0.018919
2.3011 0.018531
2.3012 0.018143
2.3013 0.017755
2.3014 0.017366
2.3015 0.016981
2.3016 0.016649
2.3017 0.016318
2.3018 0.015987
2.3019 0.015656
2.3020 0.015325
2.3021 0.015064
2.3022 0.014828
2.3023 0.014591
2.3024 0.014355
2.3025 0.014118
2.3026 0.013890
2.3027 0.013671
2.3028 0.013453
2.3029 0.013235
2.3030 0.013016
2.3031 0.012798
2.3032 0.012578
2.3033 0.012358
2.3034 0.012138
2.3035 0.011918
2.3036 0.011698
2.3037 0.011480
2.3038 0.011262
2.3039 0.011044
2.3040 0.010826
2.3041 0.010608
2.3042 0.010390
2.3043 0.010173
2.3044 0.009955
2.3045 0.009738
2.3046 0.009520
2.3047 0.009310
2.3048 0.009124
2.3049 0.008939
2.3050 0.008753
2.3051 0.008567
2.3052 0.008382
2.3053 0.008229
2.3054 0.008079
2.3055 0.007930
2.3056 0.007781
2.3057 0.007632
2.3058 0.007513
2.3059 0.007415
2.3060 0.007317
2.3061 0.007220
2.3062 0.007122
2.3063 0.007033
2.3064 0.006967
2.3065 0.006902
2.3066 0.006837
2.3067 0.006771
2.3068 0.006706
2.3069 0.006633
2.3070 0.006560
2.3071 0.006487
2.3072 0.006414
2.3073 0.006341
2.3074 0.006263
2.3075 0.006181
2.3076 0.006098
2.3077 0.006016
2.3078 0.005934
2.3079 0.005846
2.3080 0.005741
2.3081 0.005637
2.3082 0.005533
2.3083 0.005429
2.3084 0.005325
2.3085 0.005224
2.3086 0.005122
2.3087 0.005021
2.3088 0.004919
2.3089 0.004818
2.3090 0.004743
2.3091 0.004684
2.3092 0.004624
2.3093 0.004565
2.3094 0.004505
2.3095 0.004449
2.3096 0.004401
2.3097 0.004353
2.3098 0.004304
2.3099 0.004256
2.3100 0.004207
2.3101 0.004160
2.3102 0.004113
2.3103 0.004066
2.3104 0.004018
2.3105 0.003971
2.3106 0.003926
2.3107 0.003882
2.3108 0.003839
2.3109 0.003795
2.3110 0.003751
2.3111 0.003708
2.3112 0.003667
2.3113 0.003627
2.3114 0.003586
2.3115 0.003545
2.3116 0.003504
2.3117 0.003470
2.3118 0.003437
2.3119 0.003404
2.3120 0.003371
2.3121 0.003338
2.3122 0.003311
2.3123 0.003287
2.3124 0.003264
2.3125 0.003240
2.3126 0.003217
2.3127 0.003191
2.3128 0.003159
2.3129 0.003126
2.3130 0.003094
2.3131 0.003062
2.3132 0.003030
2.3133 0.002976
2.3134 0.002921
2.3135 0.002866
2.3136 0.002811
2.3137 0.002756
2.3138 0.002707
2.3139 0.002662
2.3140 0.002617
2.3141 0.002571
2.3142 0.002526
2.3143 0.002483
2.3144 0.002446
2.3145 0.002409
2.3146 0.002372
2.3147 0.002335
2.3148 0.002298
2.3149 0.002256
2.3150 0.002214
2.3151 0.002172
2.3152 0.002130
2.3153 0.002088
2.3154 0.002046
2.3155 0.002005
# -------------------
